# Target: WASP-39b
# Instrument: NIRISS/SOSS
# Pipeline: transitspectroscopy
# Author: Espinoza
wave,wave_error,dppm,dppm_err,order
0.60107, 0.00020, 22327.70, 833.10, 2
0.60147, 0.00020, 21751.20, 787.90, 2
0.60187, 0.00020, 21600.70, 786.50, 2
0.60227, 0.00020, 20761.20, 793.70, 2
0.60267, 0.00020, 21680.80, 1062.80, 2
0.60307, 0.00020, 21421.90, 730.00, 2
0.60347, 0.00020, 22090.20, 849.10, 2
0.60387, 0.00020, 19833.40, 887.90, 2
0.60427, 0.00020, 20510.10, 908.00, 2
0.60467, 0.00020, 21549.80, 677.20, 2
0.60517, 0.00025, 21396.50, 765.90, 2
0.60557, 0.00020, 22012.00, 733.50, 2
0.60597, 0.00020, 21107.00, 729.60, 2
0.60637, 0.00020, 21119.70, 684.90, 2
0.60677, 0.00020, 21407.70, 772.10, 2
0.60717, 0.00020, 22030.80, 723.20, 2
0.60757, 0.00020, 22805.60, 739.80, 2
0.60797, 0.00020, 21968.40, 721.10, 2
0.60837, 0.00020, 20909.30, 759.30, 2
0.60887, 0.00025, 20015.00, 758.30, 2
0.60927, 0.00020, 21536.10, 709.40, 2
0.60967, 0.00020, 21746.50, 990.50, 2
0.61007, 0.00020, 21481.00, 691.50, 2
0.61087, 0.00040, 21746.70, 888.00, 2
0.61127, 0.00020, 20748.60, 645.70, 2
0.61167, 0.00020, 21533.50, 678.00, 2
0.61217, 0.00025, 20275.30, 721.90, 2
0.61257, 0.00020, 21381.10, 683.10, 2
0.61297, 0.00020, 20584.80, 704.40, 2
0.61337, 0.00020, 22219.00, 793.60, 2
0.61377, 0.00020, 21884.60, 696.50, 2
0.61417, 0.00020, 21074.80, 650.40, 2
0.61457, 0.00020, 20707.30, 586.80, 2
0.61497, 0.00020, 21450.40, 704.10, 2
0.61547, 0.00025, 20907.50, 754.60, 2
0.61587, 0.00020, 21846.30, 575.00, 2
0.61627, 0.00020, 21217.60, 734.30, 2
0.61667, 0.00020, 20967.80, 668.80, 2
0.61707, 0.00020, 21032.30, 808.20, 2
0.61747, 0.00020, 21412.00, 679.10, 2
0.61787, 0.00020, 20753.90, 568.60, 2
0.61837, 0.00025, 21334.80, 610.00, 2
0.61877, 0.00020, 21015.60, 717.40, 2
0.61917, 0.00020, 21350.30, 559.70, 2
0.61957, 0.00020, 21590.50, 577.60, 2
0.61997, 0.00020, 21070.70, 615.90, 2
0.62037, 0.00020, 21042.10, 689.00, 2
0.62087, 0.00025, 21526.10, 631.10, 2
0.62127, 0.00020, 22246.40, 629.30, 2
0.62167, 0.00020, 21120.20, 647.00, 2
0.62207, 0.00020, 21266.20, 565.90, 2
0.62247, 0.00020, 20426.30, 622.60, 2
0.62287, 0.00020, 21539.70, 743.10, 2
0.62327, 0.00020, 21113.10, 513.10, 2
0.62377, 0.00025, 21587.30, 731.20, 2
0.62417, 0.00020, 21420.90, 684.80, 2
0.62457, 0.00020, 21094.90, 675.80, 2
0.62497, 0.00020, 20989.10, 605.20, 2
0.62537, 0.00020, 21004.90, 524.90, 2
0.62587, 0.00025, 20758.30, 533.10, 2
0.62627, 0.00020, 21346.80, 532.50, 2
0.62667, 0.00020, 21566.80, 594.30, 2
0.62707, 0.00020, 22069.50, 591.20, 2
0.62787, 0.00040, 20130.60, 612.40, 2
0.62877, 0.00045, 20554.90, 524.30, 2
0.62917, 0.00020, 20900.40, 693.10, 2
0.62957, 0.00020, 20366.10, 595.50, 2
0.62997, 0.00020, 20554.20, 468.60, 2
0.63037, 0.00020, 21379.90, 475.10, 2
0.63087, 0.00025, 20989.10, 566.40, 2
0.63127, 0.00020, 21131.00, 504.50, 2
0.63167, 0.00020, 20934.80, 626.60, 2
0.63207, 0.00020, 20749.30, 458.00, 2
0.63247, 0.00020, 21574.10, 755.60, 2
0.63297, 0.00025, 20333.60, 556.20, 2
0.63338, 0.00021, 20044.90, 488.20, 2
0.63378, 0.00020, 20886.60, 510.80, 2
0.63418, 0.00020, 21009.80, 454.90, 2
0.63458, 0.00020, 20319.60, 501.40, 2
0.63508, 0.00025, 20962.10, 528.20, 2
0.63548, 0.00020, 21398.90, 469.40, 2
0.63588, 0.00020, 21367.40, 440.20, 2
0.63628, 0.00020, 20782.40, 440.60, 2
0.63668, 0.00020, 21565.00, 497.90, 2
0.63718, 0.00025, 20991.00, 526.60, 2
0.63758, 0.00020, 21811.40, 581.60, 2
0.63798, 0.00020, 21762.50, 560.40, 2
0.63838, 0.00020, 21682.50, 470.40, 2
0.63888, 0.00025, 20785.70, 549.90, 2
0.63928, 0.00020, 20206.60, 452.50, 2
0.63968, 0.00020, 20919.90, 546.60, 2
0.64008, 0.00020, 20989.70, 421.90, 2
0.64048, 0.00020, 20664.60, 495.10, 2
0.64098, 0.00025, 21400.30, 499.70, 2
0.64138, 0.00020, 21471.70, 443.20, 2
0.64178, 0.00020, 21176.10, 520.00, 2
0.64218, 0.00020, 20843.40, 403.90, 2
0.64258, 0.00020, 21602.00, 506.20, 2
0.64308, 0.00025, 21153.90, 493.50, 2
0.64348, 0.00020, 20991.60, 468.80, 2
0.64388, 0.00020, 20948.80, 751.20, 2
0.64428, 0.00020, 21006.30, 388.40, 2
0.64478, 0.00025, 21145.30, 940.10, 2
0.64518, 0.00020, 21269.40, 535.80, 2
0.64558, 0.00020, 21370.90, 521.80, 2
0.64598, 0.00020, 21378.10, 437.90, 2
0.64648, 0.00025, 21229.80, 428.90, 2
0.64688, 0.00020, 21344.40, 513.30, 2
0.64728, 0.00020, 21470.20, 449.90, 2
0.64768, 0.00020, 21114.10, 619.10, 2
0.64818, 0.00025, 20923.90, 535.20, 2
0.64858, 0.00020, 21319.80, 534.20, 2
0.64898, 0.00020, 21428.70, 533.00, 2
0.64938, 0.00020, 21152.60, 483.60, 2
0.64978, 0.00020, 20694.10, 404.70, 2
0.65028, 0.00025, 20936.40, 442.20, 2
0.65068, 0.00020, 21238.40, 467.30, 2
0.65108, 0.00020, 21171.90, 898.80, 2
0.65148, 0.00020, 20435.70, 433.80, 2
0.65198, 0.00025, 21201.00, 401.90, 2
0.65238, 0.00020, 21208.20, 402.90, 2
0.65278, 0.00020, 21338.90, 389.70, 2
0.65328, 0.00025, 21273.00, 463.60, 2
0.65368, 0.00020, 20918.50, 476.60, 2
0.65408, 0.00020, 20492.00, 465.90, 2
0.65448, 0.00020, 21103.70, 529.70, 2
0.65498, 0.00025, 20925.80, 356.20, 2
0.65538, 0.00020, 21393.60, 573.00, 2
0.65578, 0.00020, 21018.70, 537.20, 2
0.65618, 0.00020, 21559.40, 560.00, 2
0.65668, 0.00025, 20745.30, 550.10, 2
0.65708, 0.00020, 21156.40, 515.40, 2
0.65748, 0.00020, 20925.40, 436.90, 2
0.65788, 0.00020, 20953.80, 494.40, 2
0.65838, 0.00025, 21030.20, 360.00, 2
0.65878, 0.00020, 21065.70, 545.20, 2
0.65918, 0.00020, 21000.00, 562.10, 2
0.65958, 0.00020, 21273.70, 659.70, 2
0.66008, 0.00025, 20704.80, 563.10, 2
0.66048, 0.00020, 21088.80, 551.30, 2
0.66088, 0.00020, 21207.80, 385.50, 2
0.66138, 0.00025, 21447.40, 529.90, 2
0.66178, 0.00020, 20728.20, 426.40, 2
0.66218, 0.00020, 20964.50, 362.40, 2
0.66258, 0.00020, 21183.90, 322.70, 2
0.66308, 0.00025, 20642.20, 545.20, 2
0.66348, 0.00020, 20985.80, 413.40, 2
0.66388, 0.00020, 21405.70, 466.20, 2
0.66438, 0.00025, 20788.60, 433.70, 2
0.66478, 0.00020, 21126.40, 321.40, 2
0.66518, 0.00020, 21585.10, 476.60, 2
0.66558, 0.00020, 21303.70, 344.90, 2
0.66608, 0.00025, 21641.60, 484.30, 2
0.66648, 0.00020, 21118.30, 400.00, 2
0.66688, 0.00020, 21417.10, 480.70, 2
0.66738, 0.00025, 21312.90, 410.90, 2
0.66778, 0.00020, 21339.80, 444.30, 2
0.66818, 0.00020, 20700.20, 727.30, 2
0.66868, 0.00025, 21374.10, 492.10, 2
0.66908, 0.00020, 20946.30, 429.90, 2
0.66948, 0.00020, 20415.10, 392.90, 2
0.66988, 0.00020, 21456.90, 445.60, 2
0.67039, 0.00026, 21437.80, 874.60, 2
0.67079, 0.00020, 21164.70, 413.60, 2
0.67119, 0.00020, 20913.70, 455.90, 2
0.67169, 0.00025, 21118.80, 468.00, 2
0.67209, 0.00020, 21191.90, 477.20, 2
0.67249, 0.00020, 21055.70, 763.30, 2
0.67299, 0.00025, 20885.60, 395.10, 2
0.67339, 0.00020, 20683.90, 469.60, 2
0.67379, 0.00020, 20660.10, 314.00, 2
0.67429, 0.00025, 21301.60, 417.10, 2
0.67469, 0.00020, 21151.50, 533.40, 2
0.67509, 0.00020, 20918.20, 418.80, 2
0.67549, 0.00020, 21464.30, 353.70, 2
0.67599, 0.00025, 21341.80, 298.40, 2
0.67639, 0.00020, 20543.20, 438.10, 2
0.67679, 0.00020, 20475.50, 440.90, 2
0.67729, 0.00025, 21313.70, 295.50, 2
0.67769, 0.00020, 20609.90, 462.20, 2
0.67809, 0.00020, 21147.00, 285.60, 2
0.67859, 0.00025, 20929.70, 464.70, 2
0.67899, 0.00020, 20922.50, 385.10, 2
0.67939, 0.00020, 21339.30, 462.30, 2
0.67989, 0.00025, 20958.40, 636.50, 2
0.68029, 0.00020, 20651.40, 429.80, 2
0.68069, 0.00020, 21415.30, 390.00, 2
0.68119, 0.00025, 21059.30, 659.60, 2
0.68159, 0.00020, 20475.50, 328.60, 2
0.68199, 0.00020, 20891.50, 462.80, 2
0.68249, 0.00025, 20981.20, 405.00, 2
0.68289, 0.00020, 20647.30, 421.60, 2
0.68329, 0.00020, 20356.10, 423.60, 2
0.68379, 0.00025, 20763.80, 383.40, 2
0.68419, 0.00020, 20845.60, 303.20, 2
0.68459, 0.00020, 21214.20, 886.00, 2
0.68509, 0.00025, 21235.30, 326.00, 2
0.68549, 0.00020, 20856.80, 443.60, 2
0.68589, 0.00020, 20818.60, 436.30, 2
0.68639, 0.00025, 20599.80, 467.20, 2
0.68679, 0.00020, 20706.30, 502.00, 2
0.68719, 0.00020, 21137.70, 498.80, 2
0.68769, 0.00025, 21368.90, 429.10, 2
0.68809, 0.00020, 20778.40, 519.90, 2
0.68859, 0.00025, 21178.80, 524.20, 2
0.68899, 0.00020, 20859.30, 458.00, 2
0.68939, 0.00020, 21012.10, 416.70, 2
0.68989, 0.00025, 20577.40, 471.70, 2
0.69029, 0.00020, 21046.90, 289.30, 2
0.69069, 0.00020, 21176.60, 443.70, 2
0.69119, 0.00025, 20858.70, 353.00, 2
0.69159, 0.00020, 20811.20, 412.90, 2
0.69199, 0.00020, 20971.50, 462.40, 2
0.69249, 0.00025, 21386.80, 432.30, 2
0.69289, 0.00020, 21057.40, 443.80, 2
0.69329, 0.00020, 21226.90, 373.20, 2
0.69379, 0.00025, 20967.60, 386.50, 2
0.69419, 0.00020, 21710.70, 392.20, 2
0.69469, 0.00025, 21083.10, 440.70, 2
0.69509, 0.00020, 21146.60, 516.90, 2
0.69549, 0.00020, 21066.30, 366.90, 2
0.69599, 0.00025, 20649.30, 378.90, 2
0.69639, 0.00020, 20809.20, 461.40, 2
0.69679, 0.00020, 20840.90, 386.80, 2
0.69729, 0.00025, 20959.30, 512.20, 2
0.69769, 0.00020, 21152.20, 385.50, 2
0.69819, 0.00025, 20661.60, 285.40, 2
0.69859, 0.00020, 20956.80, 354.00, 2
0.69899, 0.00020, 21173.30, 534.20, 2
0.69949, 0.00025, 21075.40, 417.50, 2
0.69989, 0.00020, 21141.50, 462.70, 2
0.70029, 0.00020, 20776.00, 403.80, 2
0.70079, 0.00025, 21584.80, 731.00, 2
0.70119, 0.00020, 20712.70, 445.50, 2
0.70169, 0.00025, 20796.50, 638.10, 2
0.70209, 0.00020, 20998.80, 448.00, 2
0.70249, 0.00020, 20573.30, 384.40, 2
0.70299, 0.00025, 21792.30, 324.20, 2
0.70339, 0.00020, 21072.20, 412.20, 2
0.70389, 0.00025, 20951.10, 444.10, 2
0.70429, 0.00020, 21195.00, 423.70, 2
0.70469, 0.00020, 20642.30, 298.70, 2
0.70519, 0.00025, 21167.90, 324.60, 2
0.70559, 0.00020, 21026.30, 394.00, 2
0.70599, 0.00020, 20887.80, 457.40, 2
0.70649, 0.00025, 20954.50, 409.20, 2
0.70689, 0.00020, 21306.30, 431.30, 2
0.70740, 0.00026, 20761.00, 325.30, 2
0.70780, 0.00020, 21090.00, 332.10, 2
0.70820, 0.00020, 20922.20, 250.70, 2
0.70870, 0.00025, 21204.00, 412.40, 2
0.70910, 0.00020, 21119.40, 534.90, 2
0.70960, 0.00025, 21338.60, 452.80, 2
0.71000, 0.00020, 20827.00, 384.50, 2
0.71050, 0.00025, 20690.20, 383.50, 2
0.71090, 0.00020, 21016.00, 387.70, 2
0.71130, 0.00020, 20727.90, 406.50, 2
0.71180, 0.00025, 20823.50, 364.10, 2
0.71220, 0.00020, 21210.70, 441.10, 2
0.71270, 0.00025, 21282.40, 371.10, 2
0.71310, 0.00020, 20794.70, 446.90, 2
0.71350, 0.00020, 20726.50, 294.90, 2
0.71400, 0.00025, 20587.10, 422.80, 2
0.71440, 0.00020, 21085.20, 464.40, 2
0.71490, 0.00025, 21156.40, 431.60, 2
0.71530, 0.00020, 21001.10, 473.80, 2
0.71570, 0.00020, 20793.30, 359.00, 2
0.71620, 0.00025, 21189.60, 380.70, 2
0.71660, 0.00020, 21182.10, 457.00, 2
0.71710, 0.00025, 21123.30, 414.90, 2
0.71750, 0.00020, 20939.20, 498.00, 2
0.71800, 0.00025, 21045.00, 584.20, 2
0.71840, 0.00020, 21218.10, 310.90, 2
0.71880, 0.00020, 20620.20, 500.40, 2
0.71930, 0.00025, 21027.60, 532.10, 2
0.71970, 0.00020, 21115.20, 488.10, 2
0.72020, 0.00025, 20899.60, 477.70, 2
0.72060, 0.00020, 20941.00, 530.50, 2
0.72110, 0.00025, 20642.00, 242.20, 2
0.72150, 0.00020, 21032.60, 393.00, 2
0.72190, 0.00020, 20919.30, 388.50, 2
0.72240, 0.00025, 20658.20, 438.40, 2
0.72280, 0.00020, 20521.10, 389.00, 2
0.72330, 0.00025, 20821.70, 437.80, 2
0.72370, 0.00020, 20711.40, 366.90, 2
0.72420, 0.00025, 20210.40, 419.10, 2
0.72460, 0.00020, 20392.30, 440.40, 2
0.72500, 0.00020, 20038.70, 576.00, 2
0.72550, 0.00025, 20100.20, 379.40, 2
0.72590, 0.00020, 19824.20, 387.60, 2
0.72640, 0.00025, 20113.30, 282.30, 2
0.72680, 0.00020, 20251.00, 470.20, 2
0.72730, 0.00025, 19945.40, 392.10, 2
0.72770, 0.00020, 20587.60, 421.80, 2
0.72820, 0.00025, 20611.50, 503.70, 2
0.72860, 0.00020, 20644.30, 434.50, 2
0.72900, 0.00020, 20680.40, 425.30, 2
0.72950, 0.00025, 20639.90, 370.30, 2
0.72990, 0.00020, 19927.10, 709.10, 2
0.73040, 0.00025, 20763.20, 746.00, 2
0.73080, 0.00020, 20979.10, 393.00, 2
0.73130, 0.00025, 20662.60, 682.00, 2
0.73170, 0.00020, 21222.80, 408.40, 2
0.73220, 0.00025, 21537.00, 427.90, 2
0.73260, 0.00020, 20826.00, 429.50, 2
0.73310, 0.00025, 21271.30, 314.20, 2
0.73350, 0.00020, 21736.50, 397.00, 2
0.73390, 0.00020, 21130.60, 484.40, 2
0.73440, 0.00025, 21054.60, 360.80, 2
0.73480, 0.00020, 21047.70, 457.70, 2
0.73530, 0.00025, 20696.30, 391.20, 2
0.73570, 0.00020, 21299.80, 478.20, 2
0.73620, 0.00025, 20577.50, 336.20, 2
0.73710, 0.00045, 20627.00, 453.20, 2
0.73750, 0.00020, 20852.50, 882.20, 2
0.73800, 0.00025, 21225.80, 611.10, 2
0.73840, 0.00020, 20741.10, 412.80, 2
0.73890, 0.00025, 20469.10, 411.30, 2
0.73930, 0.00020, 21125.20, 430.80, 2
0.73980, 0.00025, 20720.00, 295.20, 2
0.74020, 0.00020, 20948.50, 303.90, 2
0.74060, 0.00020, 20901.60, 422.50, 2
0.74110, 0.00025, 20738.10, 587.60, 2
0.74150, 0.00020, 21356.80, 486.20, 2
0.74200, 0.00025, 21102.10, 418.20, 2
0.74240, 0.00020, 20583.90, 403.70, 2
0.74290, 0.00025, 20889.70, 271.60, 2
0.74330, 0.00020, 21250.60, 517.00, 2
0.74380, 0.00025, 21328.30, 331.50, 2
0.74420, 0.00020, 21027.80, 441.10, 2
0.74471, 0.00026, 21188.50, 455.60, 2
0.74511, 0.00020, 20715.30, 452.10, 2
0.74561, 0.00025, 21343.30, 608.90, 2
0.74601, 0.00020, 20955.90, 337.40, 2
0.74651, 0.00025, 20927.80, 387.10, 2
0.74691, 0.00020, 20780.20, 365.10, 2
0.74741, 0.00025, 20963.40, 526.60, 2
0.74781, 0.00020, 20877.30, 375.70, 2
0.74831, 0.00025, 21130.40, 868.20, 2
0.74871, 0.00020, 20721.60, 465.50, 2
0.74921, 0.00025, 21122.80, 448.80, 2
0.74961, 0.00020, 20794.00, 327.30, 2
0.75011, 0.00025, 21456.20, 390.20, 2
0.75051, 0.00020, 20927.70, 427.30, 2
0.75101, 0.00025, 20976.10, 386.20, 2
0.75141, 0.00020, 20382.40, 394.20, 2
0.75191, 0.00025, 20768.40, 448.60, 2
0.75231, 0.00020, 20928.10, 381.90, 2
0.75281, 0.00025, 20464.00, 445.10, 2
0.75321, 0.00020, 20509.90, 499.20, 2
0.75371, 0.00025, 21417.30, 534.50, 2
0.75411, 0.00020, 20772.40, 385.90, 2
0.75461, 0.00025, 20344.40, 394.30, 2
0.75501, 0.00020, 20641.80, 423.80, 2
0.75551, 0.00025, 21386.50, 369.30, 2
0.75591, 0.00020, 20783.30, 736.10, 2
0.75641, 0.00025, 20836.00, 384.00, 2
0.75681, 0.00020, 21032.80, 411.40, 2
0.75731, 0.00025, 21033.10, 513.00, 2
0.75771, 0.00020, 20777.00, 405.30, 2
0.75821, 0.00025, 20630.00, 432.60, 2
0.75861, 0.00020, 20842.10, 426.80, 2
0.75911, 0.00025, 21050.00, 507.40, 2
0.75951, 0.00020, 20956.00, 496.80, 2
0.76001, 0.00025, 21101.90, 614.10, 2
0.76041, 0.00020, 20887.20, 472.40, 2
0.76091, 0.00025, 21200.60, 393.20, 2
0.76131, 0.00020, 20803.70, 440.00, 2
0.76181, 0.00025, 21225.30, 407.50, 2
0.76221, 0.00020, 20498.70, 312.20, 2
0.76271, 0.00025, 21097.70, 480.80, 2
0.76311, 0.00020, 20743.00, 862.50, 2
0.76361, 0.00025, 21224.60, 433.80, 2
0.76401, 0.00020, 20527.70, 486.20, 2
0.76451, 0.00025, 21460.60, 487.00, 2
0.76491, 0.00020, 21633.60, 490.90, 2
0.76541, 0.00025, 21788.80, 383.30, 2
0.76591, 0.00025, 21602.30, 307.80, 2
0.76631, 0.00020, 21998.00, 492.40, 2
0.76681, 0.00025, 21521.00, 764.40, 2
0.76771, 0.00045, 21536.20, 349.80, 2
0.76811, 0.00020, 21521.50, 380.10, 2
0.76861, 0.00025, 21456.30, 389.10, 2
0.76901, 0.00020, 21853.90, 394.90, 2
0.76951, 0.00025, 21123.50, 325.20, 2
0.76991, 0.00020, 21238.30, 468.20, 2
0.77041, 0.00025, 21229.20, 689.20, 2
0.77081, 0.00020, 20981.80, 437.40, 2
0.77131, 0.00025, 21168.00, 356.20, 2
0.77171, 0.00020, 21528.60, 522.90, 2
0.77221, 0.00025, 20765.80, 482.70, 2
0.77261, 0.00020, 20745.40, 449.50, 2
0.77311, 0.00025, 20771.30, 450.70, 2
0.77361, 0.00025, 21071.60, 463.80, 2
0.77401, 0.00020, 20272.40, 735.20, 2
0.77451, 0.00025, 21275.70, 437.80, 2
0.77491, 0.00020, 21009.40, 434.40, 2
0.77541, 0.00025, 20738.70, 409.40, 2
0.77581, 0.00020, 21015.90, 683.90, 2
0.77631, 0.00025, 20969.20, 334.40, 2
0.77671, 0.00020, 21008.70, 444.30, 2
0.77721, 0.00025, 20879.00, 356.40, 2
0.77761, 0.00020, 20648.70, 840.70, 2
0.77811, 0.00025, 21320.00, 457.60, 2
0.77861, 0.00025, 20510.20, 411.60, 2
0.77901, 0.00020, 20565.90, 581.80, 2
0.77951, 0.00025, 20645.30, 443.50, 2
0.77991, 0.00020, 21179.30, 352.90, 2
0.78041, 0.00025, 21223.00, 483.10, 2
0.78081, 0.00020, 20478.90, 375.70, 2
0.78131, 0.00025, 20822.10, 868.40, 2
0.78172, 0.00021, 20178.10, 446.30, 2
0.78222, 0.00025, 20423.50, 470.00, 2
0.78272, 0.00025, 21044.60, 386.60, 2
0.78312, 0.00020, 20886.70, 519.10, 2
0.78362, 0.00025, 21130.00, 429.50, 2
0.78402, 0.00020, 21050.40, 275.60, 2
0.78452, 0.00025, 20856.80, 422.60, 2
0.78492, 0.00020, 21271.10, 468.70, 2
0.78542, 0.00025, 20715.90, 472.60, 2
0.78582, 0.00020, 21407.70, 420.00, 2
0.78632, 0.00025, 21581.20, 376.90, 2
0.78682, 0.00025, 19949.20, 467.00, 2
0.78722, 0.00020, 20848.50, 350.10, 2
0.78772, 0.00025, 21368.50, 1020.90, 2
0.78812, 0.00020, 19929.30, 463.40, 2
0.78862, 0.00025, 20825.00, 500.30, 2
0.78902, 0.00020, 21091.00, 480.80, 2
0.78952, 0.00025, 20925.40, 535.00, 2
0.79002, 0.00025, 21031.40, 485.80, 2
0.79042, 0.00020, 20808.40, 514.00, 2
0.79092, 0.00025, 20292.30, 496.80, 2
0.79132, 0.00020, 20938.20, 514.50, 2
0.79182, 0.00025, 21103.50, 501.20, 2
0.79222, 0.00020, 20743.60, 336.30, 2
0.79272, 0.00025, 21128.60, 354.00, 2
0.79322, 0.00025, 21080.90, 369.00, 2
0.79362, 0.00020, 20569.60, 494.90, 2
0.79412, 0.00025, 20951.40, 365.50, 2
0.79452, 0.00020, 20803.30, 489.70, 2
0.79502, 0.00025, 21480.60, 444.20, 2
0.79542, 0.00020, 20475.80, 426.80, 2
0.79592, 0.00025, 21378.50, 403.60, 2
0.79642, 0.00025, 21745.70, 569.30, 2
0.79682, 0.00020, 20775.90, 501.70, 2
0.79732, 0.00025, 20834.60, 486.70, 2
0.79772, 0.00020, 20577.80, 563.60, 2
0.79822, 0.00025, 21563.00, 358.60, 2
0.79872, 0.00025, 21504.80, 451.80, 2
0.79912, 0.00020, 20754.20, 338.00, 2
0.79962, 0.00025, 20808.00, 580.30, 2
0.80002, 0.00020, 21004.70, 511.50, 2
0.80052, 0.00025, 20767.70, 566.40, 2
0.80092, 0.00020, 20927.00, 459.40, 2
0.80142, 0.00025, 21156.00, 547.60, 2
0.80192, 0.00025, 21275.20, 354.80, 2
0.80232, 0.00020, 21142.10, 467.10, 2
0.80282, 0.00025, 21684.60, 525.80, 2
0.80322, 0.00020, 21355.90, 620.50, 2
0.80372, 0.00025, 20853.00, 376.00, 2
0.80422, 0.00025, 21125.10, 387.10, 2
0.80512, 0.00045, 20869.80, 515.10, 2
0.80552, 0.00020, 20387.00, 469.20, 2
0.80602, 0.00025, 20938.60, 396.90, 2
0.80652, 0.00025, 20996.20, 586.20, 2
0.80692, 0.00020, 21780.90, 516.30, 2
0.80742, 0.00025, 21707.40, 532.80, 2
0.80782, 0.00020, 20894.80, 442.80, 2
0.80832, 0.00025, 21007.60, 446.20, 2
0.80882, 0.00025, 21359.40, 571.50, 2
0.80922, 0.00020, 21265.90, 477.30, 2
0.80972, 0.00025, 21577.70, 529.50, 2
0.81012, 0.00020, 21423.30, 406.20, 2
0.81062, 0.00025, 20564.50, 384.50, 2
0.81112, 0.00025, 21582.50, 499.70, 2
0.81152, 0.00020, 20777.90, 457.60, 2
0.81202, 0.00025, 20864.20, 452.10, 2
0.81242, 0.00020, 21094.60, 522.50, 2
0.81292, 0.00025, 20587.90, 515.60, 2
0.81342, 0.00025, 21120.00, 535.50, 2
0.81382, 0.00020, 21741.30, 397.80, 2
0.81432, 0.00025, 20881.70, 452.60, 2
0.81482, 0.00025, 21035.80, 519.10, 2
0.81522, 0.00020, 21100.00, 528.00, 2
0.81572, 0.00025, 20878.00, 552.50, 2
0.81612, 0.00020, 20810.80, 464.50, 2
0.81662, 0.00025, 21034.40, 457.00, 2
0.81712, 0.00025, 21318.70, 442.80, 2
0.81752, 0.00020, 21205.60, 413.60, 2
0.81802, 0.00025, 21532.10, 574.80, 2
0.81842, 0.00020, 21095.10, 435.70, 2
0.81893, 0.00026, 20556.00, 481.30, 2
0.81943, 0.00025, 20944.00, 446.80, 2
0.81983, 0.00020, 20975.00, 417.50, 2
0.82033, 0.00025, 20461.50, 468.80, 2
0.82083, 0.00025, 20704.10, 514.30, 2
0.82123, 0.00020, 21222.30, 491.30, 2
0.82173, 0.00025, 20769.30, 491.80, 2
0.82213, 0.00020, 20776.60, 570.40, 2
0.82263, 0.00025, 20597.80, 433.60, 2
0.82313, 0.00025, 20917.80, 598.10, 2
0.82353, 0.00020, 20682.50, 496.80, 2
0.82403, 0.00025, 20287.40, 589.00, 2
0.82453, 0.00025, 21639.60, 516.10, 2
0.82493, 0.00020, 20833.80, 436.00, 2
0.82543, 0.00025, 21336.40, 707.90, 2
0.82583, 0.00020, 20827.90, 394.00, 2
0.82633, 0.00025, 20844.30, 627.00, 2
0.82683, 0.00025, 21545.80, 597.20, 2
0.82723, 0.00020, 20755.50, 570.70, 2
0.82773, 0.00025, 21215.60, 454.90, 2
0.82823, 0.00025, 21208.60, 565.80, 2
0.82863, 0.00020, 21185.90, 579.70, 2
0.82913, 0.00025, 21731.40, 535.90, 2
0.82953, 0.00020, 21348.90, 534.40, 2
0.83003, 0.00025, 21498.20, 529.90, 2
0.83053, 0.00025, 21373.20, 557.20, 2
0.83093, 0.00020, 21349.50, 449.80, 2
0.83143, 0.00025, 21243.20, 557.80, 2
0.83193, 0.00025, 21139.80, 603.20, 2
0.83233, 0.00020, 21352.70, 582.10, 2
0.83283, 0.00025, 20232.00, 520.00, 2
0.83333, 0.00025, 21101.40, 574.30, 2
0.83373, 0.00020, 21421.30, 453.30, 2
0.83423, 0.00025, 21486.40, 548.10, 2
0.83463, 0.00020, 20773.20, 568.30, 2
0.83513, 0.00025, 21164.40, 589.40, 2
0.83563, 0.00025, 21268.90, 505.10, 2
0.83603, 0.00020, 20947.70, 493.60, 2
0.83653, 0.00025, 20724.00, 749.00, 2
0.83703, 0.00025, 21109.50, 580.20, 2
0.83743, 0.00020, 20812.50, 480.90, 2
0.83793, 0.00025, 20061.50, 599.00, 2
0.83843, 0.00025, 20801.80, 523.40, 2
0.83883, 0.00020, 21621.40, 584.60, 2
0.83933, 0.00025, 20685.90, 494.20, 2
0.83983, 0.00025, 20932.70, 494.80, 2
0.84023, 0.00020, 21255.00, 554.20, 2
0.84073, 0.00025, 21501.20, 501.70, 2
0.84123, 0.00025, 21276.00, 468.20, 2
0.84163, 0.00020, 21100.00, 419.30, 2
0.84213, 0.00025, 20815.70, 479.60, 2
0.84253, 0.00020, 21126.40, 628.40, 2
0.84303, 0.00025, 20521.10, 513.10, 2
0.84353, 0.00025, 20446.10, 486.20, 2
0.85113, 0.00045, 21347.80, 265.40, 1
0.85203, 0.00045, 21065.30, 556.10, 1
0.85293, 0.00045, 21183.40, 468.20, 1
0.85383, 0.00045, 20652.00, 346.40, 1
0.85473, 0.00045, 20811.30, 375.40, 1
0.85564, 0.00045, 20799.10, 523.20, 1
0.85644, 0.00040, 21103.70, 705.40, 1
0.85734, 0.00045, 21202.80, 448.30, 1
0.85824, 0.00045, 21183.30, 589.50, 1
0.85914, 0.00045, 20968.00, 264.60, 1
0.86004, 0.00045, 21089.40, 430.20, 1
0.86094, 0.00045, 21144.90, 302.60, 1
0.86184, 0.00045, 21098.90, 492.20, 1
0.86264, 0.00040, 21178.80, 347.60, 1
0.86354, 0.00045, 20835.00, 345.30, 1
0.86444, 0.00045, 21154.00, 223.50, 1
0.86534, 0.00045, 21208.80, 368.10, 1
0.86624, 0.00045, 21031.70, 426.00, 1
0.86714, 0.00045, 20705.20, 485.70, 1
0.86804, 0.00045, 21271.50, 292.30, 1
0.86894, 0.00045, 21124.40, 406.50, 1
0.86974, 0.00040, 21339.00, 368.70, 1
0.87064, 0.00045, 21255.20, 391.40, 1
0.87154, 0.00045, 21200.20, 293.60, 1
0.87244, 0.00045, 20826.80, 406.50, 1
0.87334, 0.00045, 20899.60, 370.90, 1
0.87424, 0.00045, 20724.80, 365.60, 1
0.87514, 0.00045, 21504.50, 406.80, 1
0.87604, 0.00045, 21460.00, 331.00, 1
0.87694, 0.00045, 20840.60, 227.80, 1
0.87784, 0.00045, 21200.90, 391.70, 1
0.87864, 0.00040, 20807.40, 323.60, 1
0.87954, 0.00045, 20804.60, 322.90, 1
0.88044, 0.00045, 20873.60, 427.60, 1
0.88134, 0.00045, 20478.10, 340.60, 1
0.88224, 0.00045, 21025.60, 371.80, 1
0.88314, 0.00045, 21148.30, 530.10, 1
0.88404, 0.00045, 20883.30, 343.70, 1
0.88494, 0.00045, 20778.90, 362.50, 1
0.88584, 0.00045, 21197.80, 501.50, 1
0.88674, 0.00045, 20943.10, 389.80, 1
0.88764, 0.00045, 21105.60, 486.90, 1
0.88854, 0.00045, 21376.50, 295.40, 1
0.88944, 0.00045, 20968.60, 383.10, 1
0.89024, 0.00040, 21077.50, 326.00, 1
0.89114, 0.00045, 21116.20, 545.80, 1
0.89204, 0.00045, 21510.30, 285.70, 1
0.89295, 0.00045, 21173.70, 590.90, 1
0.89385, 0.00045, 21326.10, 420.20, 1
0.89475, 0.00045, 21494.30, 273.20, 1
0.89565, 0.00045, 20773.50, 382.10, 1
0.89655, 0.00045, 21239.60, 381.30, 1
0.89745, 0.00045, 21167.80, 343.70, 1
0.89835, 0.00045, 21190.60, 398.60, 1
0.89925, 0.00045, 21301.20, 426.40, 1
0.90015, 0.00045, 20871.00, 386.60, 1
0.90105, 0.00045, 21396.30, 372.90, 1
0.90195, 0.00045, 20948.20, 378.30, 1
0.90285, 0.00045, 21148.60, 226.40, 1
0.90375, 0.00045, 21361.60, 331.70, 1
0.90465, 0.00045, 20844.50, 365.40, 1
0.90555, 0.00045, 21047.10, 367.60, 1
0.90645, 0.00045, 21268.00, 335.50, 1
0.90735, 0.00045, 21087.60, 635.50, 1
0.90825, 0.00045, 21216.60, 402.70, 1
0.90915, 0.00045, 20879.60, 765.80, 1
0.91005, 0.00045, 21271.90, 312.20, 1
0.91095, 0.00045, 20944.50, 290.90, 1
0.91185, 0.00045, 21138.80, 329.90, 1
0.91275, 0.00045, 20932.30, 354.30, 1
0.91365, 0.00045, 21261.40, 354.70, 1
0.91455, 0.00045, 21334.60, 286.30, 1
0.91545, 0.00045, 21079.70, 384.90, 1
0.91635, 0.00045, 21176.90, 299.60, 1
0.91725, 0.00045, 21284.70, 736.00, 1
0.91815, 0.00045, 21225.90, 359.70, 1
0.91905, 0.00045, 21306.60, 679.90, 1
0.91995, 0.00045, 21084.30, 530.50, 1
0.92085, 0.00045, 21090.70, 213.80, 1
0.92175, 0.00045, 21451.20, 332.70, 1
0.92265, 0.00045, 21406.40, 349.00, 1
0.92355, 0.00045, 21248.60, 344.20, 1
0.92445, 0.00045, 21379.00, 220.30, 1
0.92535, 0.00045, 21217.70, 351.10, 1
0.92625, 0.00045, 21091.40, 262.30, 1
0.92715, 0.00045, 21536.30, 327.90, 1
0.92805, 0.00045, 21484.50, 390.90, 1
0.92895, 0.00045, 21357.70, 439.70, 1
0.92986, 0.00045, 21444.90, 545.70, 1
0.93076, 0.00045, 21294.40, 324.00, 1
0.93166, 0.00045, 21238.90, 406.80, 1
0.93256, 0.00045, 21500.50, 335.30, 1
0.93346, 0.00045, 21419.80, 425.30, 1
0.93436, 0.00045, 21288.20, 349.90, 1
0.93526, 0.00045, 21291.30, 361.60, 1
0.93616, 0.00045, 21092.20, 463.50, 1
0.93706, 0.00045, 21092.80, 445.20, 1
0.93796, 0.00045, 20920.30, 369.10, 1
0.93886, 0.00045, 21308.70, 198.00, 1
0.93976, 0.00045, 21369.30, 359.90, 1
0.94066, 0.00045, 21474.30, 307.30, 1
0.94156, 0.00045, 21539.70, 390.70, 1
0.94256, 0.00050, 21290.00, 368.20, 1
0.94346, 0.00045, 21118.60, 305.90, 1
0.94436, 0.00045, 20687.70, 344.70, 1
0.94526, 0.00045, 21293.10, 298.60, 1
0.94616, 0.00045, 21258.90, 510.50, 1
0.94706, 0.00045, 21558.50, 333.80, 1
0.94796, 0.00045, 21603.50, 275.10, 1
0.94886, 0.00045, 21269.50, 341.60, 1
0.94976, 0.00045, 21473.30, 697.90, 1
0.95066, 0.00045, 21491.00, 415.20, 1
0.95156, 0.00045, 21433.50, 239.20, 1
0.95246, 0.00045, 21293.90, 248.60, 1
0.95336, 0.00045, 20991.50, 271.20, 1
0.95426, 0.00045, 21161.80, 359.60, 1
0.95526, 0.00050, 21117.80, 329.10, 1
0.95616, 0.00045, 21245.60, 363.00, 1
0.95706, 0.00045, 21004.60, 373.40, 1
0.95796, 0.00045, 21072.60, 361.40, 1
0.95886, 0.00045, 21479.30, 373.10, 1
0.95976, 0.00045, 21022.50, 186.20, 1
0.96066, 0.00045, 21416.30, 619.40, 1
0.96156, 0.00045, 21448.70, 324.30, 1
0.96246, 0.00045, 21393.30, 204.50, 1
0.96336, 0.00045, 21502.60, 221.30, 1
0.96436, 0.00050, 21131.60, 355.00, 1
0.96526, 0.00045, 21253.00, 307.80, 1
0.96616, 0.00045, 21350.00, 214.90, 1
0.96707, 0.00045, 21344.40, 287.00, 1
0.96797, 0.00045, 21266.30, 242.60, 1
0.96887, 0.00045, 21364.60, 369.30, 1
0.96977, 0.00045, 20990.90, 370.10, 1
0.97067, 0.00045, 21253.80, 295.80, 1
0.97157, 0.00045, 21131.20, 301.50, 1
0.97257, 0.00050, 21452.90, 193.80, 1
0.97347, 0.00045, 21165.40, 294.10, 1
0.97437, 0.00045, 21080.70, 253.40, 1
0.97527, 0.00045, 21262.70, 622.70, 1
0.97617, 0.00045, 21196.80, 423.20, 1
0.97707, 0.00045, 21227.60, 315.10, 1
0.97797, 0.00045, 21156.80, 412.30, 1
0.97897, 0.00050, 21281.10, 340.90, 1
0.97987, 0.00045, 21483.50, 420.00, 1
0.98077, 0.00045, 21222.00, 194.30, 1
0.98167, 0.00045, 21094.30, 257.90, 1
0.98257, 0.00045, 21053.10, 280.80, 1
0.98347, 0.00045, 21125.60, 431.70, 1
0.98437, 0.00045, 21202.40, 454.10, 1
0.98537, 0.00050, 21329.10, 569.10, 1
0.98627, 0.00045, 20494.50, 225.00, 1
0.98717, 0.00045, 20754.60, 272.90, 1
0.98807, 0.00045, 21109.10, 392.70, 1
0.98897, 0.00045, 21036.80, 374.00, 1
0.98987, 0.00045, 20916.60, 208.50, 1
0.99087, 0.00050, 20767.10, 190.80, 1
0.99177, 0.00045, 21225.00, 346.30, 1
0.99267, 0.00045, 21118.10, 414.30, 1
0.99357, 0.00045, 21333.80, 180.00, 1
0.99447, 0.00045, 21083.30, 239.30, 1
0.99537, 0.00045, 21073.90, 360.90, 1
0.99637, 0.00050, 21199.60, 195.10, 1
0.99727, 0.00045, 20907.40, 314.50, 1
0.99817, 0.00045, 21096.00, 358.20, 1
0.99907, 0.00045, 20897.20, 337.20, 1
0.99997, 0.00045, 21216.80, 304.30, 1
1.00087, 0.00045, 20815.00, 352.80, 1
1.00187, 0.00050, 21274.80, 367.90, 1
1.00277, 0.00045, 21240.00, 198.70, 1
1.00368, 0.00045, 21017.00, 346.80, 1
1.00458, 0.00045, 21129.30, 265.00, 1
1.00548, 0.00045, 20842.60, 401.80, 1
1.00648, 0.00050, 20987.60, 387.20, 1
1.00738, 0.00045, 21003.60, 348.70, 1
1.00828, 0.00045, 21438.00, 634.00, 1
1.00918, 0.00045, 20893.50, 287.40, 1
1.01008, 0.00045, 21359.90, 240.60, 1
1.01108, 0.00050, 21485.40, 361.50, 1
1.01198, 0.00045, 20891.10, 349.10, 1
1.01288, 0.00045, 20818.50, 438.90, 1
1.01378, 0.00045, 21010.70, 390.40, 1
1.01468, 0.00045, 20923.60, 291.20, 1
1.01568, 0.00050, 21210.60, 411.40, 1
1.01658, 0.00045, 21399.10, 364.10, 1
1.01748, 0.00045, 21066.40, 194.70, 1
1.01838, 0.00045, 21160.20, 226.20, 1
1.01938, 0.00050, 20948.10, 283.40, 1
1.02028, 0.00045, 20891.10, 163.20, 1
1.02118, 0.00045, 21027.80, 293.70, 1
1.02208, 0.00045, 21199.50, 435.40, 1
1.02298, 0.00045, 20953.10, 303.50, 1
1.02398, 0.00050, 20917.30, 483.60, 1
1.02488, 0.00045, 21259.70, 282.60, 1
1.02578, 0.00045, 20893.40, 317.60, 1
1.02668, 0.00045, 20875.00, 398.70, 1
1.02768, 0.00050, 21127.10, 211.60, 1
1.02858, 0.00045, 21219.40, 310.30, 1
1.02948, 0.00045, 21009.00, 421.00, 1
1.03038, 0.00045, 21258.60, 318.10, 1
1.03138, 0.00050, 20765.60, 284.40, 1
1.03228, 0.00045, 21253.60, 283.00, 1
1.03318, 0.00045, 21245.50, 811.50, 1
1.03408, 0.00045, 21286.50, 210.40, 1
1.03498, 0.00045, 20852.20, 327.00, 1
1.03598, 0.00050, 20912.60, 289.10, 1
1.03688, 0.00045, 20946.20, 477.20, 1
1.03778, 0.00045, 21029.70, 389.60, 1
1.03868, 0.00045, 20836.50, 214.40, 1
1.03968, 0.00050, 20841.80, 160.80, 1
1.04059, 0.00045, 21014.50, 328.40, 1
1.04149, 0.00045, 20784.40, 896.20, 1
1.04249, 0.00050, 20993.20, 359.90, 1
1.04339, 0.00045, 20574.10, 295.50, 1
1.04429, 0.00045, 20791.70, 330.80, 1
1.04519, 0.00045, 21309.80, 983.80, 1
1.04619, 0.00050, 21141.60, 378.00, 1
1.04709, 0.00045, 20942.90, 376.40, 1
1.04799, 0.00045, 20927.30, 380.20, 1
1.04889, 0.00045, 20994.00, 428.60, 1
1.04989, 0.00050, 20856.30, 646.10, 1
1.05079, 0.00045, 21014.20, 308.00, 1
1.05169, 0.00045, 20887.20, 260.00, 1
1.05269, 0.00050, 20887.30, 346.70, 1
1.05359, 0.00045, 20996.60, 176.10, 1
1.05449, 0.00045, 20994.30, 185.80, 1
1.05539, 0.00045, 20950.70, 448.70, 1
1.05639, 0.00050, 20969.50, 427.60, 1
1.05729, 0.00045, 21068.60, 305.60, 1
1.05819, 0.00045, 20878.10, 398.50, 1
1.05919, 0.00050, 21385.00, 658.50, 1
1.06009, 0.00045, 21285.40, 308.10, 1
1.06099, 0.00045, 21210.70, 309.50, 1
1.06189, 0.00045, 20894.10, 222.80, 1
1.06289, 0.00050, 20920.30, 552.40, 1
1.06379, 0.00045, 20754.00, 432.20, 1
1.06469, 0.00045, 21044.60, 169.10, 1
1.06569, 0.00050, 21012.30, 193.60, 1
1.06659, 0.00045, 21047.70, 607.30, 1
1.06749, 0.00045, 21254.80, 307.10, 1
1.06849, 0.00050, 21093.30, 315.90, 1
1.06939, 0.00045, 20907.60, 486.80, 1
1.07029, 0.00045, 20781.70, 251.20, 1
1.07119, 0.00045, 20766.10, 328.80, 1
1.07219, 0.00050, 20934.20, 326.20, 1
1.07309, 0.00045, 21326.70, 477.30, 1
1.07399, 0.00045, 20969.40, 236.10, 1
1.07499, 0.00050, 20849.80, 321.80, 1
1.07589, 0.00045, 20806.40, 235.80, 1
1.07679, 0.00045, 20844.00, 375.90, 1
1.07780, 0.00051, 21221.90, 349.80, 1
1.07870, 0.00045, 21012.70, 358.40, 1
1.07960, 0.00045, 21057.20, 338.60, 1
1.08060, 0.00050, 21208.80, 293.10, 1
1.08150, 0.00045, 21132.90, 407.40, 1
1.08240, 0.00045, 21388.70, 330.80, 1
1.08340, 0.00050, 21472.20, 305.70, 1
1.08430, 0.00045, 20435.90, 604.10, 1
1.08520, 0.00045, 21016.10, 257.10, 1
1.08620, 0.00050, 21223.80, 198.70, 1
1.08710, 0.00045, 21380.30, 324.40, 1
1.08800, 0.00045, 21200.40, 253.80, 1
1.08900, 0.00050, 21245.30, 442.50, 1
1.08990, 0.00045, 20875.10, 363.00, 1
1.09080, 0.00045, 20867.20, 315.60, 1
1.09180, 0.00050, 21036.20, 188.70, 1
1.09270, 0.00045, 21270.20, 265.50, 1
1.09360, 0.00045, 21318.40, 324.70, 1
1.09460, 0.00050, 21353.30, 364.30, 1
1.09550, 0.00045, 20897.70, 271.00, 1
1.09640, 0.00045, 21104.40, 327.60, 1
1.09740, 0.00050, 21037.90, 316.00, 1
1.09830, 0.00045, 21017.90, 278.90, 1
1.09930, 0.00050, 21116.50, 277.40, 1
1.10020, 0.00045, 21120.50, 198.80, 1
1.10110, 0.00045, 21018.10, 303.70, 1
1.10210, 0.00050, 21127.80, 330.60, 1
1.10300, 0.00045, 21414.60, 280.50, 1
1.10390, 0.00045, 21194.20, 445.10, 1
1.10490, 0.00050, 21564.60, 424.80, 1
1.10580, 0.00045, 21398.80, 291.90, 1
1.10670, 0.00045, 21405.20, 613.80, 1
1.10770, 0.00050, 21402.20, 296.20, 1
1.10860, 0.00045, 21191.40, 415.80, 1
1.10960, 0.00050, 21180.20, 295.10, 1
1.11050, 0.00045, 21193.10, 272.00, 1
1.11140, 0.00045, 21478.90, 333.70, 1
1.11240, 0.00050, 21118.60, 1154.90, 1
1.11330, 0.00045, 21597.60, 254.00, 1
1.11421, 0.00045, 21294.00, 547.30, 1
1.11521, 0.00050, 21116.90, 362.40, 1
1.11611, 0.00045, 21158.50, 256.00, 1
1.11711, 0.00050, 21436.80, 261.10, 1
1.11801, 0.00045, 21545.80, 281.10, 1
1.11891, 0.00045, 21295.90, 167.70, 1
1.11991, 0.00050, 21359.00, 269.80, 1
1.12081, 0.00045, 21210.50, 417.70, 1
1.12181, 0.00050, 21141.20, 317.40, 1
1.12271, 0.00045, 21292.50, 396.70, 1
1.12361, 0.00045, 21136.40, 305.10, 1
1.12461, 0.00050, 21124.00, 253.70, 1
1.12551, 0.00045, 21107.90, 167.40, 1
1.12641, 0.00045, 21242.00, 297.80, 1
1.12741, 0.00050, 21282.70, 271.20, 1
1.12831, 0.00045, 21468.20, 277.60, 1
1.12931, 0.00050, 21449.60, 276.60, 1
1.13021, 0.00045, 21450.60, 304.60, 1
1.13121, 0.00050, 20992.40, 310.40, 1
1.13211, 0.00045, 21458.20, 251.90, 1
1.13301, 0.00045, 21584.30, 248.70, 1
1.13401, 0.00050, 21441.20, 329.10, 1
1.13491, 0.00045, 21614.60, 195.20, 1
1.13591, 0.00050, 21482.40, 309.70, 1
1.13681, 0.00045, 21425.10, 603.30, 1
1.13771, 0.00045, 21179.70, 458.50, 1
1.13871, 0.00050, 21279.70, 454.70, 1
1.13961, 0.00045, 21633.50, 298.20, 1
1.14061, 0.00050, 21384.30, 254.50, 1
1.14151, 0.00045, 21379.90, 360.10, 1
1.14241, 0.00045, 21357.00, 341.10, 1
1.14341, 0.00050, 21246.30, 370.60, 1
1.14431, 0.00045, 21298.60, 414.00, 1
1.14531, 0.00050, 21261.80, 322.90, 1
1.14621, 0.00045, 21255.70, 505.10, 1
1.14721, 0.00050, 21244.90, 285.20, 1
1.14811, 0.00045, 21211.20, 375.40, 1
1.14901, 0.00045, 21184.50, 333.00, 1
1.15001, 0.00050, 20942.30, 600.60, 1
1.15092, 0.00045, 21221.80, 301.90, 1
1.15192, 0.00050, 21377.80, 299.00, 1
1.15282, 0.00045, 21566.10, 567.70, 1
1.15382, 0.00050, 21100.80, 278.20, 1
1.15472, 0.00045, 21772.60, 763.50, 1
1.15572, 0.00050, 21096.20, 299.10, 1
1.15662, 0.00045, 21396.70, 383.90, 1
1.15752, 0.00045, 21138.50, 284.80, 1
1.15852, 0.00050, 20794.30, 297.40, 1
1.15942, 0.00045, 21149.20, 601.50, 1
1.16042, 0.00050, 21295.80, 514.30, 1
1.16132, 0.00045, 21242.30, 414.10, 1
1.16232, 0.00050, 21356.20, 267.20, 1
1.16322, 0.00045, 21291.20, 436.80, 1
1.16422, 0.00050, 21217.90, 370.80, 1
1.16512, 0.00045, 21266.70, 299.90, 1
1.16602, 0.00045, 21087.00, 295.70, 1
1.16702, 0.00050, 21615.10, 204.70, 1
1.16792, 0.00045, 21326.70, 307.00, 1
1.16892, 0.00050, 21046.70, 423.00, 1
1.16982, 0.00045, 21496.90, 298.90, 1
1.17082, 0.00050, 21236.10, 315.20, 1
1.17172, 0.00045, 21163.20, 319.30, 1
1.17272, 0.00050, 21192.50, 298.20, 1
1.17362, 0.00045, 21189.90, 320.70, 1
1.17462, 0.00050, 21094.70, 278.00, 1
1.17552, 0.00045, 21088.70, 321.00, 1
1.17652, 0.00050, 21120.80, 268.80, 1
1.17742, 0.00045, 21413.30, 326.40, 1
1.17832, 0.00045, 21156.50, 847.70, 1
1.17932, 0.00050, 21082.60, 436.20, 1
1.18022, 0.00045, 21330.40, 428.10, 1
1.18122, 0.00050, 21273.10, 310.70, 1
1.18212, 0.00045, 21658.90, 236.00, 1
1.18312, 0.00050, 21274.70, 549.90, 1
1.18402, 0.00045, 21787.70, 514.80, 1
1.18502, 0.00050, 21042.50, 319.70, 1
1.18592, 0.00045, 21054.70, 310.40, 1
1.18692, 0.00050, 21127.70, 294.60, 1
1.18783, 0.00045, 21210.40, 282.20, 1
1.18883, 0.00050, 21132.40, 298.00, 1
1.18973, 0.00045, 21421.90, 227.40, 1
1.19073, 0.00050, 21150.30, 293.60, 1
1.19163, 0.00045, 21202.70, 371.70, 1
1.19263, 0.00050, 20916.80, 157.00, 1
1.19353, 0.00045, 21162.90, 315.80, 1
1.19453, 0.00050, 21272.20, 286.70, 1
1.19543, 0.00045, 21367.20, 663.10, 1
1.19643, 0.00050, 20981.70, 282.70, 1
1.19733, 0.00045, 21166.90, 171.90, 1
1.19833, 0.00050, 20841.60, 181.20, 1
1.19923, 0.00045, 21103.90, 293.70, 1
1.20023, 0.00050, 21189.00, 248.10, 1
1.20113, 0.00045, 21176.30, 308.70, 1
1.20213, 0.00050, 21407.30, 341.40, 1
1.20303, 0.00045, 21296.40, 397.00, 1
1.20403, 0.00050, 21203.10, 270.50, 1
1.20493, 0.00045, 21080.10, 284.40, 1
1.20593, 0.00050, 21183.80, 329.50, 1
1.20683, 0.00045, 21155.70, 298.20, 1
1.20783, 0.00050, 21125.70, 178.90, 1
1.20873, 0.00045, 21304.20, 177.30, 1
1.20973, 0.00050, 21330.00, 224.70, 1
1.21063, 0.00045, 21168.80, 326.50, 1
1.21163, 0.00050, 21017.40, 270.50, 1
1.21253, 0.00045, 20980.90, 466.10, 1
1.21353, 0.00050, 20952.30, 294.10, 1
1.21443, 0.00045, 21079.80, 461.10, 1
1.21543, 0.00050, 21332.40, 330.30, 1
1.21633, 0.00045, 21502.20, 622.50, 1
1.21733, 0.00050, 21271.30, 284.50, 1
1.21823, 0.00045, 21025.60, 409.50, 1
1.21923, 0.00050, 21127.50, 338.40, 1
1.22013, 0.00045, 21062.70, 331.60, 1
1.22113, 0.00050, 20857.70, 371.00, 1
1.22203, 0.00045, 21311.00, 514.70, 1
1.22303, 0.00050, 21224.80, 419.00, 1
1.22393, 0.00045, 21306.20, 197.30, 1
1.22494, 0.00050, 21021.50, 315.70, 1
1.22584, 0.00045, 21231.50, 370.50, 1
1.22684, 0.00050, 21486.30, 204.50, 1
1.22784, 0.00050, 21016.30, 339.30, 1
1.22874, 0.00045, 20941.60, 319.80, 1
1.22974, 0.00050, 21170.90, 310.60, 1
1.23064, 0.00045, 21122.40, 336.70, 1
1.23164, 0.00050, 20960.80, 414.20, 1
1.23254, 0.00045, 21135.60, 752.80, 1
1.23354, 0.00050, 21298.20, 379.00, 1
1.23444, 0.00045, 21123.40, 238.70, 1
1.23544, 0.00050, 21071.60, 390.00, 1
1.23634, 0.00045, 21044.50, 236.40, 1
1.23734, 0.00050, 21000.00, 327.40, 1
1.23824, 0.00045, 21094.40, 249.20, 1
1.23924, 0.00050, 21158.00, 308.10, 1
1.24024, 0.00050, 20881.80, 318.60, 1
1.24114, 0.00045, 20958.00, 325.80, 1
1.24214, 0.00050, 20864.90, 669.90, 1
1.24304, 0.00045, 20965.80, 385.60, 1
1.24404, 0.00050, 21102.00, 402.80, 1
1.24494, 0.00045, 21086.50, 855.60, 1
1.24594, 0.00050, 21119.60, 288.00, 1
1.24684, 0.00045, 21205.50, 364.80, 1
1.24784, 0.00050, 21010.00, 382.70, 1
1.24874, 0.00045, 21069.10, 151.20, 1
1.24974, 0.00050, 20800.00, 329.40, 1
1.25074, 0.00050, 21248.30, 1313.60, 1
1.25164, 0.00045, 21167.60, 891.70, 1
1.25264, 0.00050, 20900.50, 168.20, 1
1.25354, 0.00045, 20985.10, 294.80, 1
1.25454, 0.00050, 21239.30, 306.00, 1
1.25544, 0.00045, 20809.20, 328.90, 1
1.25644, 0.00050, 20947.80, 438.90, 1
1.25744, 0.00050, 20940.70, 335.70, 1
1.25834, 0.00045, 20975.90, 364.10, 1
1.25934, 0.00050, 20938.60, 183.30, 1
1.26024, 0.00045, 20847.60, 667.50, 1
1.26124, 0.00050, 20942.90, 229.00, 1
1.26215, 0.00046, 21079.70, 324.60, 1
1.26315, 0.00050, 20980.80, 184.10, 1
1.26405, 0.00045, 20653.30, 309.60, 1
1.26505, 0.00050, 21152.20, 225.50, 1
1.26605, 0.00050, 21184.00, 402.50, 1
1.26695, 0.00045, 21090.90, 333.00, 1
1.26795, 0.00050, 21105.70, 312.40, 1
1.26885, 0.00045, 20923.30, 215.50, 1
1.26985, 0.00050, 20860.60, 278.20, 1
1.27085, 0.00050, 20925.00, 467.40, 1
1.27175, 0.00045, 21079.70, 622.20, 1
1.27275, 0.00050, 20921.40, 298.40, 1
1.27365, 0.00045, 20908.70, 575.40, 1
1.27465, 0.00050, 20708.00, 371.00, 1
1.27555, 0.00045, 21047.20, 393.70, 1
1.27655, 0.00050, 20905.40, 391.20, 1
1.27755, 0.00050, 20788.20, 363.90, 1
1.27845, 0.00045, 21281.70, 299.80, 1
1.27945, 0.00050, 21127.00, 356.50, 1
1.28035, 0.00045, 20988.50, 383.90, 1
1.28135, 0.00050, 21090.20, 617.60, 1
1.28225, 0.00045, 21039.70, 330.50, 1
1.28325, 0.00050, 20926.00, 431.40, 1
1.28425, 0.00050, 21109.30, 268.50, 1
1.28515, 0.00045, 20783.90, 426.20, 1
1.28615, 0.00050, 20755.20, 458.20, 1
1.28705, 0.00045, 21114.90, 291.60, 1
1.28805, 0.00050, 20997.10, 313.90, 1
1.28905, 0.00050, 21194.50, 185.10, 1
1.28995, 0.00045, 21112.30, 601.80, 1
1.29095, 0.00050, 21212.20, 740.00, 1
1.29185, 0.00045, 20939.20, 364.10, 1
1.29285, 0.00050, 21048.80, 410.20, 1
1.29385, 0.00050, 21302.90, 675.40, 1
1.29475, 0.00045, 21024.10, 387.40, 1
1.29575, 0.00050, 21063.90, 256.50, 1
1.29665, 0.00045, 21279.60, 832.30, 1
1.29765, 0.00050, 20690.20, 308.20, 1
1.29866, 0.00050, 20774.70, 337.00, 1
1.29956, 0.00045, 20791.00, 429.50, 1
1.30056, 0.00050, 21054.10, 392.30, 1
1.30146, 0.00045, 21032.20, 715.60, 1
1.30246, 0.00050, 21033.10, 434.70, 1
1.30346, 0.00050, 20937.50, 445.80, 1
1.30436, 0.00045, 21088.70, 313.30, 1
1.30536, 0.00050, 20925.80, 338.20, 1
1.30636, 0.00050, 20958.50, 251.00, 1
1.30726, 0.00045, 21147.90, 362.70, 1
1.30826, 0.00050, 21094.30, 175.60, 1
1.30916, 0.00045, 21039.90, 238.00, 1
1.31016, 0.00050, 21191.30, 331.70, 1
1.31116, 0.00050, 21248.10, 421.70, 1
1.31206, 0.00045, 21199.00, 407.50, 1
1.31306, 0.00050, 21283.70, 323.80, 1
1.31396, 0.00045, 21109.90, 759.40, 1
1.31496, 0.00050, 20780.20, 349.10, 1
1.31596, 0.00050, 20951.50, 448.70, 1
1.31686, 0.00045, 21331.80, 598.30, 1
1.31786, 0.00050, 21249.70, 444.30, 1
1.31886, 0.00050, 21158.30, 428.90, 1
1.31976, 0.00045, 21174.70, 328.80, 1
1.32076, 0.00050, 21132.00, 290.90, 1
1.32166, 0.00045, 21520.10, 314.80, 1
1.32266, 0.00050, 21276.20, 397.00, 1
1.32366, 0.00050, 21052.80, 502.40, 1
1.32456, 0.00045, 21391.70, 219.40, 1
1.32556, 0.00050, 21057.80, 358.30, 1
1.32656, 0.00050, 21322.10, 443.10, 1
1.32746, 0.00045, 21257.10, 328.40, 1
1.32846, 0.00050, 21456.30, 344.60, 1
1.32936, 0.00045, 21200.90, 322.60, 1
1.33036, 0.00050, 21399.00, 518.90, 1
1.33136, 0.00050, 21519.20, 306.90, 1
1.33226, 0.00045, 21384.30, 674.60, 1
1.33326, 0.00050, 21378.70, 306.90, 1
1.33426, 0.00050, 21330.30, 336.50, 1
1.33517, 0.00045, 21606.00, 390.60, 1
1.33617, 0.00050, 21346.00, 323.50, 1
1.33717, 0.00050, 21165.90, 337.70, 1
1.33807, 0.00045, 21287.20, 314.50, 1
1.33907, 0.00050, 21597.10, 266.70, 1
1.33997, 0.00045, 21576.40, 340.00, 1
1.34097, 0.00050, 21638.40, 472.90, 1
1.34197, 0.00050, 21268.20, 466.70, 1
1.34287, 0.00045, 21781.20, 317.30, 1
1.34387, 0.00050, 21487.80, 420.50, 1
1.34487, 0.00050, 21748.50, 794.10, 1
1.34577, 0.00045, 21516.90, 381.00, 1
1.34677, 0.00050, 21516.40, 377.20, 1
1.34777, 0.00050, 21171.20, 327.40, 1
1.34867, 0.00045, 21475.70, 394.10, 1
1.34967, 0.00050, 21310.70, 304.50, 1
1.35067, 0.00050, 21816.90, 444.40, 1
1.35157, 0.00045, 21658.10, 288.60, 1
1.35257, 0.00050, 21415.60, 285.50, 1
1.35347, 0.00045, 21672.80, 364.50, 1
1.35447, 0.00050, 21329.00, 263.30, 1
1.35547, 0.00050, 21703.60, 191.10, 1
1.35637, 0.00045, 21821.70, 365.30, 1
1.35737, 0.00050, 21673.90, 201.00, 1
1.35837, 0.00050, 21639.70, 312.70, 1
1.35927, 0.00045, 21566.60, 300.00, 1
1.36027, 0.00050, 21553.00, 204.30, 1
1.36127, 0.00050, 21274.40, 386.50, 1
1.36217, 0.00045, 21658.20, 419.10, 1
1.36317, 0.00050, 21573.50, 378.80, 1
1.36417, 0.00050, 21659.00, 494.70, 1
1.36507, 0.00045, 21438.80, 311.80, 1
1.36607, 0.00050, 21434.50, 534.30, 1
1.36707, 0.00050, 21689.20, 195.00, 1
1.36797, 0.00045, 21320.20, 404.00, 1
1.36897, 0.00050, 21792.20, 528.80, 1
1.36997, 0.00050, 21736.70, 294.50, 1
1.37087, 0.00045, 21315.40, 301.00, 1
1.37188, 0.00050, 21439.30, 390.30, 1
1.37288, 0.00050, 21650.20, 322.80, 1
1.37378, 0.00045, 21480.70, 504.30, 1
1.37478, 0.00050, 21584.00, 489.20, 1
1.37578, 0.00050, 21465.80, 412.00, 1
1.37668, 0.00045, 21893.20, 177.20, 1
1.37768, 0.00050, 21892.10, 432.10, 1
1.37868, 0.00050, 21423.40, 400.40, 1
1.37958, 0.00045, 21201.30, 409.20, 1
1.38058, 0.00050, 21640.20, 354.00, 1
1.38158, 0.00050, 21838.60, 836.40, 1
1.38248, 0.00045, 21613.30, 321.50, 1
1.38348, 0.00050, 21430.40, 268.90, 1
1.38448, 0.00050, 21841.90, 340.10, 1
1.38538, 0.00045, 21507.60, 352.70, 1
1.38638, 0.00050, 21888.90, 348.90, 1
1.38738, 0.00050, 21454.40, 364.00, 1
1.38828, 0.00045, 21666.50, 180.60, 1
1.38928, 0.00050, 21598.10, 337.80, 1
1.39028, 0.00050, 21458.40, 336.30, 1
1.39118, 0.00045, 21405.00, 395.90, 1
1.39218, 0.00050, 21157.30, 437.10, 1
1.39318, 0.00050, 21306.10, 301.90, 1
1.39418, 0.00050, 21695.20, 386.80, 1
1.39508, 0.00045, 21073.70, 371.10, 1
1.39608, 0.00050, 21569.80, 329.10, 1
1.39708, 0.00050, 21512.80, 371.20, 1
1.39798, 0.00045, 21759.90, 303.20, 1
1.39898, 0.00050, 21681.10, 470.60, 1
1.39998, 0.00050, 21933.40, 339.20, 1
1.40088, 0.00045, 21654.70, 333.60, 1
1.40188, 0.00050, 21499.40, 384.00, 1
1.40288, 0.00050, 21454.50, 320.80, 1
1.40378, 0.00045, 21696.00, 338.90, 1
1.40478, 0.00050, 21465.20, 280.70, 1
1.40578, 0.00050, 21545.90, 305.00, 1
1.40668, 0.00045, 21745.80, 360.00, 1
1.40768, 0.00050, 21482.00, 603.70, 1
1.40869, 0.00050, 21756.10, 312.50, 1
1.40969, 0.00050, 21592.80, 313.90, 1
1.41059, 0.00045, 21691.50, 451.90, 1
1.41159, 0.00050, 21773.20, 463.00, 1
1.41259, 0.00050, 21359.00, 279.20, 1
1.41349, 0.00045, 21353.60, 323.80, 1
1.41449, 0.00050, 21706.60, 514.80, 1
1.41549, 0.00050, 21485.80, 433.80, 1
1.41639, 0.00045, 21549.50, 268.50, 1
1.41739, 0.00050, 21831.10, 510.10, 1
1.41839, 0.00050, 21516.10, 335.40, 1
1.41929, 0.00045, 21542.30, 285.90, 1
1.42029, 0.00050, 21368.40, 351.10, 1
1.42129, 0.00050, 21686.70, 338.40, 1
1.42229, 0.00050, 21413.20, 261.80, 1
1.42319, 0.00045, 21657.20, 440.30, 1
1.42419, 0.00050, 21943.20, 605.10, 1
1.42519, 0.00050, 21670.60, 337.90, 1
1.42609, 0.00045, 21569.40, 609.10, 1
1.42709, 0.00050, 21519.70, 363.40, 1
1.42809, 0.00050, 22089.80, 543.40, 1
1.42909, 0.00050, 21655.90, 340.30, 1
1.42999, 0.00045, 21612.60, 350.90, 1
1.43099, 0.00050, 21697.20, 969.10, 1
1.43199, 0.00050, 21728.60, 397.00, 1
1.43289, 0.00045, 21790.10, 420.70, 1
1.43389, 0.00050, 21896.60, 951.10, 1
1.43489, 0.00050, 21329.20, 314.70, 1
1.43579, 0.00045, 21384.40, 348.40, 1
1.43679, 0.00050, 21371.00, 505.50, 1
1.43779, 0.00050, 21768.60, 327.80, 1
1.43879, 0.00050, 21755.30, 403.10, 1
1.43969, 0.00045, 21272.40, 251.60, 1
1.44069, 0.00050, 21830.10, 334.60, 1
1.44169, 0.00050, 21265.60, 249.00, 1
1.44259, 0.00045, 21425.80, 1156.30, 1
1.44359, 0.00050, 21565.60, 581.20, 1
1.44459, 0.00050, 21609.70, 253.90, 1
1.44560, 0.00050, 21723.10, 381.80, 1
1.44650, 0.00045, 21616.30, 335.70, 1
1.44750, 0.00050, 21725.10, 308.70, 1
1.44850, 0.00050, 21406.80, 318.10, 1
1.44940, 0.00045, 21804.50, 203.70, 1
1.45040, 0.00050, 21699.00, 275.80, 1
1.45140, 0.00050, 21398.80, 365.30, 1
1.45240, 0.00050, 21413.80, 324.30, 1
1.45330, 0.00045, 21649.10, 355.60, 1
1.45430, 0.00050, 21297.50, 345.30, 1
1.45530, 0.00050, 21711.80, 518.60, 1
1.45630, 0.00050, 21116.90, 335.40, 1
1.45720, 0.00045, 21217.20, 293.50, 1
1.45820, 0.00050, 21575.50, 293.60, 1
1.45920, 0.00050, 21488.40, 210.40, 1
1.46010, 0.00045, 21502.90, 341.40, 1
1.46110, 0.00050, 21188.70, 439.70, 1
1.46210, 0.00050, 21301.60, 323.40, 1
1.46310, 0.00050, 21200.20, 517.50, 1
1.46400, 0.00045, 21246.20, 414.20, 1
1.46500, 0.00050, 21697.00, 524.40, 1
1.46600, 0.00050, 21689.30, 221.90, 1
1.46690, 0.00045, 21366.70, 300.20, 1
1.46790, 0.00050, 21626.10, 439.00, 1
1.46890, 0.00050, 21691.30, 383.40, 1
1.46990, 0.00050, 21676.60, 414.50, 1
1.47080, 0.00045, 21385.00, 378.10, 1
1.47180, 0.00050, 21474.60, 433.50, 1
1.47280, 0.00050, 21491.40, 350.90, 1
1.47380, 0.00050, 21666.30, 436.50, 1
1.47470, 0.00045, 21356.30, 244.50, 1
1.47570, 0.00050, 21190.20, 416.40, 1
1.47670, 0.00050, 21470.20, 367.20, 1
1.47770, 0.00050, 21314.30, 343.40, 1
1.47860, 0.00045, 21650.40, 397.40, 1
1.47960, 0.00050, 21570.50, 266.50, 1
1.48060, 0.00050, 21726.00, 395.40, 1
1.48150, 0.00045, 21137.80, 398.10, 1
1.48251, 0.00050, 21685.60, 254.20, 1
1.48351, 0.00050, 20881.30, 361.40, 1
1.48451, 0.00050, 21705.00, 417.40, 1
1.48541, 0.00045, 21317.00, 357.70, 1
1.48641, 0.00050, 21613.60, 309.30, 1
1.48741, 0.00050, 21396.00, 254.70, 1
1.48841, 0.00050, 21598.70, 517.50, 1
1.48931, 0.00045, 21569.50, 348.90, 1
1.49031, 0.00050, 21508.90, 403.20, 1
1.49131, 0.00050, 21522.90, 294.80, 1
1.49231, 0.00050, 21028.90, 375.60, 1
1.49321, 0.00045, 21085.20, 424.50, 1
1.49421, 0.00050, 21157.40, 345.00, 1
1.49521, 0.00050, 21450.40, 388.00, 1
1.49621, 0.00050, 21572.60, 628.80, 1
1.49711, 0.00045, 21076.30, 254.80, 1
1.49811, 0.00050, 21554.60, 379.40, 1
1.49911, 0.00050, 20981.20, 233.30, 1
1.50011, 0.00050, 21172.20, 384.40, 1
1.50101, 0.00045, 21439.60, 311.80, 1
1.50201, 0.00050, 21327.80, 487.30, 1
1.50301, 0.00050, 21535.90, 392.40, 1
1.50401, 0.00050, 21370.80, 381.40, 1
1.50491, 0.00045, 21256.40, 343.20, 1
1.50591, 0.00050, 21561.60, 468.60, 1
1.50691, 0.00050, 21035.20, 367.30, 1
1.50791, 0.00050, 21017.70, 548.80, 1
1.50881, 0.00045, 21188.40, 474.60, 1
1.50981, 0.00050, 21348.90, 310.60, 1
1.51081, 0.00050, 21376.10, 234.20, 1
1.51181, 0.00050, 21441.40, 418.70, 1
1.51271, 0.00045, 21490.60, 508.40, 1
1.51371, 0.00050, 21170.90, 457.90, 1
1.51471, 0.00050, 21190.40, 287.40, 1
1.51571, 0.00050, 21208.80, 540.80, 1
1.51661, 0.00045, 21349.70, 370.30, 1
1.51761, 0.00050, 21351.20, 320.50, 1
1.51861, 0.00050, 21227.00, 226.00, 1
1.51962, 0.00050, 21522.40, 787.00, 1
1.52052, 0.00045, 21016.00, 323.90, 1
1.52152, 0.00050, 21259.00, 572.30, 1
1.52252, 0.00050, 21090.20, 584.60, 1
1.52352, 0.00050, 21311.20, 375.40, 1
1.52442, 0.00045, 21380.90, 461.10, 1
1.52542, 0.00050, 21167.40, 345.10, 1
1.52642, 0.00050, 21045.40, 436.20, 1
1.52742, 0.00050, 21163.40, 330.00, 1
1.52832, 0.00045, 21246.50, 439.90, 1
1.52932, 0.00050, 21538.80, 301.50, 1
1.53032, 0.00050, 21171.10, 322.90, 1
1.53132, 0.00050, 21250.40, 381.40, 1
1.53222, 0.00045, 20877.70, 425.80, 1
1.53322, 0.00050, 21258.40, 312.70, 1
1.53422, 0.00050, 20887.40, 236.50, 1
1.53522, 0.00050, 21252.60, 337.40, 1
1.53612, 0.00045, 21177.40, 380.20, 1
1.53712, 0.00050, 20952.70, 395.10, 1
1.53812, 0.00050, 21019.60, 415.20, 1
1.53912, 0.00050, 21094.50, 351.90, 1
1.54002, 0.00045, 21529.10, 825.90, 1
1.54102, 0.00050, 21210.20, 392.30, 1
1.54202, 0.00050, 21140.30, 323.80, 1
1.54302, 0.00050, 21292.40, 1408.10, 1
1.54402, 0.00050, 20934.50, 343.40, 1
1.54492, 0.00045, 21206.30, 294.50, 1
1.54592, 0.00050, 20703.50, 286.90, 1
1.54692, 0.00050, 21227.20, 360.00, 1
1.54792, 0.00050, 21418.20, 279.20, 1
1.54882, 0.00045, 21014.30, 254.50, 1
1.54982, 0.00050, 21448.10, 237.40, 1
1.55082, 0.00050, 20749.90, 228.50, 1
1.55182, 0.00050, 20938.80, 351.60, 1
1.55272, 0.00045, 21146.90, 714.20, 1
1.55372, 0.00050, 21177.40, 560.90, 1
1.55472, 0.00050, 21139.80, 532.80, 1
1.55573, 0.00050, 20861.60, 370.60, 1
1.55673, 0.00050, 21198.20, 429.80, 1
1.55763, 0.00045, 21137.70, 255.50, 1
1.55863, 0.00050, 21124.90, 289.80, 1
1.55963, 0.00050, 21209.40, 262.70, 1
1.56063, 0.00050, 21136.60, 563.80, 1
1.56153, 0.00045, 20854.00, 374.00, 1
1.56253, 0.00050, 21167.40, 269.70, 1
1.56353, 0.00050, 21440.50, 312.60, 1
1.56453, 0.00050, 21413.80, 578.90, 1
1.56543, 0.00045, 21473.20, 406.20, 1
1.56643, 0.00050, 21702.00, 609.00, 1
1.56743, 0.00050, 21378.90, 400.40, 1
1.56843, 0.00050, 21014.80, 245.80, 1
1.56943, 0.00050, 21049.00, 435.10, 1
1.57033, 0.00045, 21146.10, 352.60, 1
1.57133, 0.00050, 21074.80, 321.70, 1
1.57233, 0.00050, 21020.40, 352.10, 1
1.57333, 0.00050, 21382.30, 411.80, 1
1.57423, 0.00045, 21306.00, 369.90, 1
1.57523, 0.00050, 21175.60, 359.60, 1
1.57623, 0.00050, 21278.40, 335.20, 1
1.57723, 0.00050, 21505.70, 423.80, 1
1.57823, 0.00050, 20974.80, 323.20, 1
1.57913, 0.00045, 20669.00, 264.90, 1
1.58013, 0.00050, 21416.40, 350.90, 1
1.58113, 0.00050, 21068.30, 385.50, 1
1.58213, 0.00050, 21119.90, 351.80, 1
1.58303, 0.00045, 20759.00, 308.00, 1
1.58403, 0.00050, 20803.50, 479.80, 1
1.58503, 0.00050, 21741.00, 253.30, 1
1.58603, 0.00050, 21280.70, 396.90, 1
1.58703, 0.00050, 21472.50, 350.20, 1
1.58793, 0.00045, 20724.80, 288.80, 1
1.58893, 0.00050, 20960.30, 586.50, 1
1.58993, 0.00050, 20943.30, 574.30, 1
1.59093, 0.00050, 21017.90, 566.20, 1
1.59183, 0.00045, 20732.50, 472.80, 1
1.59284, 0.00050, 21148.90, 401.70, 1
1.59384, 0.00050, 20402.50, 1211.90, 1
1.59484, 0.00050, 20815.80, 253.20, 1
1.59584, 0.00050, 21053.60, 421.10, 1
1.59674, 0.00045, 20865.10, 377.70, 1
1.59774, 0.00050, 21481.10, 467.30, 1
1.59874, 0.00050, 20833.00, 356.60, 1
1.59974, 0.00050, 21273.50, 265.30, 1
1.60074, 0.00050, 21188.00, 557.00, 1
1.60164, 0.00045, 20803.90, 366.60, 1
1.60264, 0.00050, 21010.10, 292.00, 1
1.60364, 0.00050, 20756.70, 426.00, 1
1.60464, 0.00050, 21400.80, 757.30, 1
1.60554, 0.00045, 21142.90, 471.90, 1
1.60654, 0.00050, 20974.90, 764.60, 1
1.60754, 0.00050, 21095.80, 397.00, 1
1.60854, 0.00050, 20877.70, 235.20, 1
1.60954, 0.00050, 21070.40, 407.30, 1
1.61044, 0.00045, 21422.60, 358.10, 1
1.61144, 0.00050, 21152.50, 811.50, 1
1.61244, 0.00050, 20906.80, 492.50, 1
1.61344, 0.00050, 21050.80, 984.00, 1
1.61444, 0.00050, 21193.90, 434.70, 1
1.61534, 0.00045, 21517.90, 586.40, 1
1.61634, 0.00050, 20949.80, 559.20, 1
1.61734, 0.00050, 20554.80, 410.90, 1
1.61834, 0.00050, 21296.50, 262.30, 1
1.61934, 0.00050, 20905.40, 414.60, 1
1.62024, 0.00045, 21460.40, 377.80, 1
1.62124, 0.00050, 20959.40, 428.80, 1
1.62224, 0.00050, 20829.10, 596.20, 1
1.62324, 0.00050, 21379.10, 352.00, 1
1.62414, 0.00045, 21367.10, 386.80, 1
1.62514, 0.00050, 21010.40, 455.50, 1
1.62614, 0.00050, 20958.10, 303.70, 1
1.62714, 0.00050, 20990.40, 310.10, 1
1.62814, 0.00050, 21529.20, 469.80, 1
1.62904, 0.00045, 21362.70, 389.00, 1
1.63005, 0.00050, 20925.50, 335.50, 1
1.63105, 0.00050, 20996.40, 272.00, 1
1.63205, 0.00050, 21114.80, 409.10, 1
1.63305, 0.00050, 20720.60, 488.80, 1
1.63395, 0.00045, 21078.10, 264.90, 1
1.63495, 0.00050, 20871.00, 545.90, 1
1.63595, 0.00050, 21079.60, 322.90, 1
1.63695, 0.00050, 21290.70, 340.50, 1
1.63795, 0.00050, 20890.40, 463.30, 1
1.63885, 0.00045, 21197.20, 590.10, 1
1.63985, 0.00050, 21095.20, 392.00, 1
1.64085, 0.00050, 20910.30, 546.40, 1
1.64185, 0.00050, 20894.40, 350.90, 1
1.64285, 0.00050, 20489.90, 426.30, 1
1.64375, 0.00045, 21186.80, 331.10, 1
1.64475, 0.00050, 21281.70, 340.20, 1
1.64575, 0.00050, 20910.90, 379.10, 1
1.64675, 0.00050, 21245.30, 394.60, 1
1.64775, 0.00050, 21109.80, 406.70, 1
1.64865, 0.00045, 20836.10, 334.50, 1
1.64965, 0.00050, 21071.10, 370.80, 1
1.65065, 0.00050, 20583.90, 285.30, 1
1.65165, 0.00050, 20993.70, 437.80, 1
1.65265, 0.00050, 20821.00, 417.70, 1
1.65355, 0.00045, 21108.40, 466.60, 1
1.65455, 0.00050, 20945.00, 320.20, 1
1.65555, 0.00050, 20577.90, 436.20, 1
1.65655, 0.00050, 21304.40, 268.50, 1
1.65755, 0.00050, 21206.40, 561.80, 1
1.65845, 0.00045, 20772.80, 275.50, 1
1.65945, 0.00050, 20997.30, 531.00, 1
1.66045, 0.00050, 20894.10, 264.80, 1
1.66145, 0.00050, 21088.90, 367.80, 1
1.66245, 0.00050, 20946.30, 477.60, 1
1.66335, 0.00045, 21343.20, 430.10, 1
1.66435, 0.00050, 20631.30, 388.20, 1
1.66535, 0.00050, 20789.90, 363.80, 1
1.66636, 0.00050, 21390.00, 578.10, 1
1.66736, 0.00050, 21235.40, 427.50, 1
1.66826, 0.00045, 20679.90, 520.80, 1
1.66926, 0.00050, 21148.40, 517.80, 1
1.67026, 0.00050, 21151.00, 496.40, 1
1.67126, 0.00050, 20440.00, 424.00, 1
1.67226, 0.00050, 21166.00, 290.00, 1
1.67316, 0.00045, 20808.90, 284.10, 1
1.67416, 0.00050, 20970.90, 347.50, 1
1.67516, 0.00050, 20600.90, 318.20, 1
1.67616, 0.00050, 21238.00, 610.10, 1
1.67716, 0.00050, 20658.80, 325.90, 1
1.67806, 0.00045, 20624.80, 425.20, 1
1.67906, 0.00050, 20790.40, 915.50, 1
1.68006, 0.00050, 21195.40, 447.00, 1
1.68106, 0.00050, 21033.20, 567.00, 1
1.68206, 0.00050, 21447.50, 258.50, 1
1.68306, 0.00050, 21293.70, 840.20, 1
1.68396, 0.00045, 20531.70, 546.50, 1
1.68496, 0.00050, 20551.20, 649.20, 1
1.68596, 0.00050, 21379.50, 368.50, 1
1.68696, 0.00050, 20664.50, 287.50, 1
1.68796, 0.00050, 21087.50, 540.30, 1
1.68886, 0.00045, 20464.40, 388.50, 1
1.68986, 0.00050, 21356.70, 469.10, 1
1.69086, 0.00050, 21220.30, 443.10, 1
1.69186, 0.00050, 21071.20, 433.90, 1
1.69286, 0.00050, 20683.80, 292.60, 1
1.69376, 0.00045, 20479.80, 462.00, 1
1.69476, 0.00050, 20848.60, 378.40, 1
1.69576, 0.00050, 20979.70, 350.20, 1
1.69676, 0.00050, 21155.00, 406.90, 1
1.69776, 0.00050, 21118.00, 493.10, 1
1.69866, 0.00045, 20953.00, 360.40, 1
1.69966, 0.00050, 21319.90, 287.50, 1
1.70066, 0.00050, 20821.80, 456.10, 1
1.70166, 0.00050, 20839.90, 502.00, 1
1.70266, 0.00050, 20789.30, 431.10, 1
1.70367, 0.00050, 21307.40, 419.70, 1
1.70457, 0.00045, 20915.40, 264.20, 1
1.70557, 0.00050, 20203.20, 333.80, 1
1.70657, 0.00050, 20915.70, 429.10, 1
1.70757, 0.00050, 20755.50, 394.10, 1
1.70857, 0.00050, 20660.00, 338.20, 1
1.70947, 0.00045, 20762.30, 532.40, 1
1.71047, 0.00050, 20714.20, 301.80, 1
1.71147, 0.00050, 20483.50, 430.40, 1
1.71247, 0.00050, 20528.60, 345.30, 1
1.71347, 0.00050, 20947.30, 641.00, 1
1.71437, 0.00045, 21214.60, 1471.00, 1
1.71537, 0.00050, 20863.00, 406.20, 1
1.71637, 0.00050, 21233.40, 340.50, 1
1.71737, 0.00050, 20997.40, 585.90, 1
1.71837, 0.00050, 20949.60, 394.20, 1
1.71937, 0.00050, 20866.70, 367.70, 1
1.72027, 0.00045, 21226.30, 665.40, 1
1.72127, 0.00050, 21330.40, 574.70, 1
1.72227, 0.00050, 20794.50, 431.30, 1
1.72327, 0.00050, 21378.90, 462.40, 1
1.72427, 0.00050, 20942.30, 369.50, 1
1.72517, 0.00045, 20871.30, 516.10, 1
1.72617, 0.00050, 21072.70, 493.70, 1
1.72717, 0.00050, 20984.20, 294.40, 1
1.72817, 0.00050, 20897.10, 441.20, 1
1.72917, 0.00050, 20894.50, 337.20, 1
1.73017, 0.00050, 20804.10, 515.20, 1
1.73107, 0.00045, 21133.20, 473.50, 1
1.73207, 0.00050, 21339.80, 324.80, 1
1.73307, 0.00050, 20731.70, 568.90, 1
1.73407, 0.00050, 20664.80, 336.70, 1
1.73507, 0.00050, 21153.50, 343.40, 1
1.73597, 0.00045, 21126.40, 461.70, 1
1.73697, 0.00050, 20831.80, 319.70, 1
1.73797, 0.00050, 21117.80, 338.30, 1
1.73897, 0.00050, 21340.40, 463.40, 1
1.73998, 0.00051, 21016.10, 304.30, 1
1.74098, 0.00050, 21203.80, 497.60, 1
1.74188, 0.00045, 20702.90, 425.20, 1
1.74288, 0.00050, 20858.90, 687.80, 1
1.74388, 0.00050, 21167.50, 306.90, 1
1.74488, 0.00050, 21083.30, 419.50, 1
1.74588, 0.00050, 21162.30, 550.20, 1
1.74678, 0.00045, 21268.20, 374.80, 1
1.74778, 0.00050, 20980.10, 348.50, 1
1.74878, 0.00050, 21160.40, 447.40, 1
1.74978, 0.00050, 21249.30, 456.00, 1
1.75078, 0.00050, 20762.00, 435.50, 1
1.75178, 0.00050, 20964.40, 457.50, 1
1.75268, 0.00045, 21027.10, 305.30, 1
1.75368, 0.00050, 21333.10, 287.50, 1
1.75468, 0.00050, 21004.30, 580.40, 1
1.75568, 0.00050, 21081.50, 411.30, 1
1.75668, 0.00050, 21072.00, 485.10, 1
1.75758, 0.00045, 21388.10, 463.50, 1
1.75858, 0.00050, 21008.60, 473.00, 1
1.75958, 0.00050, 21701.20, 362.60, 1
1.76058, 0.00050, 21449.60, 315.70, 1
1.76158, 0.00050, 21364.40, 331.70, 1
1.76258, 0.00050, 21199.70, 463.70, 1
1.76348, 0.00045, 21250.40, 331.00, 1
1.76448, 0.00050, 21677.00, 472.20, 1
1.76548, 0.00050, 21501.10, 352.40, 1
1.76648, 0.00050, 21498.90, 424.70, 1
1.76748, 0.00050, 21362.00, 343.30, 1
1.76838, 0.00045, 21395.40, 339.60, 1
1.76938, 0.00050, 20991.60, 498.60, 1
1.77038, 0.00050, 21340.20, 297.20, 1
1.77138, 0.00050, 21342.10, 506.30, 1
1.77238, 0.00050, 21375.50, 457.90, 1
1.77338, 0.00050, 20856.30, 468.60, 1
1.77428, 0.00045, 21181.60, 375.90, 1
1.77528, 0.00050, 21623.50, 584.90, 1
1.77628, 0.00050, 21444.90, 474.00, 1
1.77729, 0.00050, 21301.30, 289.90, 1
1.77829, 0.00050, 20862.60, 377.90, 1
1.77929, 0.00050, 20883.00, 402.70, 1
1.78019, 0.00045, 20637.30, 376.10, 1
1.78119, 0.00050, 21669.40, 461.70, 1
1.78219, 0.00050, 21107.00, 572.60, 1
1.78319, 0.00050, 21537.80, 498.80, 1
1.78419, 0.00050, 21304.00, 379.50, 1
1.78509, 0.00045, 21493.10, 561.10, 1
1.78609, 0.00050, 21280.40, 437.10, 1
1.78709, 0.00050, 21191.50, 349.40, 1
1.78809, 0.00050, 20913.40, 432.30, 1
1.78909, 0.00050, 21516.20, 513.00, 1
1.79009, 0.00050, 21193.80, 387.40, 1
1.79099, 0.00045, 20969.70, 312.70, 1
1.79199, 0.00050, 21045.80, 455.00, 1
1.79299, 0.00050, 21486.80, 546.00, 1
1.79399, 0.00050, 21419.80, 417.10, 1
1.79499, 0.00050, 20670.80, 559.90, 1
1.79599, 0.00050, 21781.10, 381.90, 1
1.79689, 0.00045, 20998.60, 298.10, 1
1.79789, 0.00050, 20884.80, 572.00, 1
1.79889, 0.00050, 21523.70, 442.50, 1
1.79989, 0.00050, 21924.30, 476.00, 1
1.80089, 0.00050, 21107.90, 477.50, 1
1.80179, 0.00045, 21628.70, 492.20, 1
1.80279, 0.00050, 20951.50, 469.30, 1
1.80379, 0.00050, 21039.30, 405.40, 1
1.80479, 0.00050, 21414.20, 454.80, 1
1.80579, 0.00050, 21218.00, 415.80, 1
1.80679, 0.00050, 21379.80, 549.60, 1
1.80769, 0.00045, 21169.10, 463.20, 1
1.80869, 0.00050, 21319.10, 472.40, 1
1.80969, 0.00050, 21725.80, 446.50, 1
1.81069, 0.00050, 21691.10, 318.50, 1
1.81169, 0.00050, 20984.90, 536.90, 1
1.81269, 0.00050, 21190.70, 353.90, 1
1.81360, 0.00046, 21130.30, 305.70, 1
1.81460, 0.00050, 20926.80, 349.70, 1
1.81560, 0.00050, 21923.40, 582.40, 1
1.81660, 0.00050, 21414.70, 372.50, 1
1.81760, 0.00050, 21231.10, 531.20, 1
1.81860, 0.00050, 21389.30, 470.80, 1
1.81950, 0.00045, 21506.90, 376.80, 1
1.82050, 0.00050, 21718.50, 434.20, 1
1.82150, 0.00050, 21419.70, 499.20, 1
1.82250, 0.00050, 21775.50, 502.20, 1
1.82350, 0.00050, 21673.30, 513.70, 1
1.82450, 0.00050, 21471.80, 525.30, 1
1.82540, 0.00045, 21004.40, 576.50, 1
1.82640, 0.00050, 21740.00, 400.10, 1
1.82740, 0.00050, 21727.00, 460.20, 1
1.82840, 0.00050, 21182.40, 400.60, 1
1.82940, 0.00050, 21732.50, 433.80, 1
1.83030, 0.00045, 21651.00, 594.20, 1
1.83130, 0.00050, 20977.60, 687.50, 1
1.83230, 0.00050, 21138.50, 305.10, 1
1.83330, 0.00050, 21053.70, 655.80, 1
1.83430, 0.00050, 21441.80, 434.30, 1
1.83530, 0.00050, 21642.80, 452.90, 1
1.83620, 0.00045, 21710.20, 528.00, 1
1.83720, 0.00050, 22119.50, 527.90, 1
1.83820, 0.00050, 21173.90, 462.80, 1
1.84020, 0.00100, 21140.70, 407.50, 1
1.84120, 0.00050, 21176.10, 658.80, 1
1.84210, 0.00045, 22103.70, 384.00, 1
1.84310, 0.00050, 21687.00, 529.30, 1
1.84410, 0.00050, 22029.40, 347.30, 1
1.84510, 0.00050, 21858.80, 418.40, 1
1.84610, 0.00050, 21605.20, 497.10, 1
1.84710, 0.00050, 21421.10, 457.90, 1
1.84800, 0.00045, 21787.70, 780.50, 1
1.84900, 0.00050, 21203.80, 521.80, 1
1.85001, 0.00050, 21406.50, 532.40, 1
1.85101, 0.00050, 21683.60, 921.20, 1
1.85201, 0.00050, 21904.50, 472.40, 1
1.85301, 0.00050, 21907.20, 593.00, 1
1.85391, 0.00045, 21648.40, 637.20, 1
1.85491, 0.00050, 21858.50, 509.20, 1
1.85591, 0.00050, 21359.80, 489.10, 1
1.85691, 0.00050, 21252.70, 450.80, 1
1.85791, 0.00050, 21819.80, 515.40, 1
1.85891, 0.00050, 21937.20, 664.40, 1
1.85981, 0.00045, 22307.20, 501.00, 1
1.86081, 0.00050, 21808.20, 506.20, 1
1.86181, 0.00050, 21432.10, 363.20, 1
1.86281, 0.00050, 21478.90, 474.00, 1
1.86381, 0.00050, 22215.40, 391.20, 1
1.86471, 0.00045, 21358.00, 500.70, 1
1.86571, 0.00050, 21027.80, 343.60, 1
1.86671, 0.00050, 21578.10, 476.80, 1
1.86771, 0.00050, 21780.00, 399.40, 1
1.86871, 0.00050, 22311.20, 342.00, 1
1.86971, 0.00050, 21126.60, 493.10, 1
1.87061, 0.00045, 21532.00, 494.10, 1
1.87161, 0.00050, 21371.20, 364.50, 1
1.87261, 0.00050, 21207.70, 493.30, 1
1.87361, 0.00050, 22180.90, 676.80, 1
1.87461, 0.00050, 21098.50, 571.70, 1
1.87561, 0.00050, 21562.50, 704.30, 1
1.87651, 0.00045, 21253.70, 491.70, 1
1.87751, 0.00050, 21406.40, 421.90, 1
1.87851, 0.00050, 21724.80, 473.00, 1
1.87951, 0.00050, 21567.90, 469.50, 1
1.88051, 0.00050, 21776.00, 423.60, 1
1.88151, 0.00050, 21393.40, 465.90, 1
1.88241, 0.00045, 21631.00, 704.00, 1
1.88341, 0.00050, 21353.00, 504.60, 1
1.88441, 0.00050, 21673.60, 663.50, 1
1.88541, 0.00050, 21709.30, 346.20, 1
1.88742, 0.00101, 22233.80, 451.80, 1
1.88832, 0.00045, 21968.10, 391.10, 1
1.88932, 0.00050, 21436.40, 595.00, 1
1.89032, 0.00050, 21636.50, 451.10, 1
1.89132, 0.00050, 22217.20, 384.40, 1
1.89232, 0.00050, 21351.80, 743.10, 1
1.89332, 0.00050, 20812.60, 433.80, 1
1.89422, 0.00045, 20588.90, 449.30, 1
1.89522, 0.00050, 21308.70, 355.30, 1
1.89622, 0.00050, 21462.60, 457.80, 1
1.89722, 0.00050, 21074.60, 524.20, 1
1.89822, 0.00050, 21030.70, 368.80, 1
1.89922, 0.00050, 21794.90, 686.00, 1
1.90012, 0.00045, 21014.10, 607.90, 1
1.90112, 0.00050, 21063.70, 535.60, 1
1.90212, 0.00050, 21235.30, 996.70, 1
1.90312, 0.00050, 21277.10, 488.40, 1
1.90412, 0.00050, 21198.50, 433.90, 1
1.90512, 0.00050, 21003.80, 508.70, 1
1.90602, 0.00045, 21677.40, 407.70, 1
1.90702, 0.00050, 20836.30, 374.80, 1
1.90802, 0.00050, 21510.00, 524.60, 1
1.90902, 0.00050, 20975.00, 393.60, 1
1.91002, 0.00050, 22237.90, 662.50, 1
1.91102, 0.00050, 21282.40, 505.80, 1
1.91192, 0.00045, 21539.10, 387.20, 1
1.91292, 0.00050, 21738.60, 491.40, 1
1.91392, 0.00050, 21118.10, 448.80, 1
1.91492, 0.00050, 21719.30, 627.60, 1
1.91592, 0.00050, 20929.50, 503.90, 1
1.91692, 0.00050, 21781.30, 557.40, 1
1.91782, 0.00045, 21272.40, 477.10, 1
1.91882, 0.00050, 21394.50, 547.30, 1
1.91982, 0.00050, 20962.20, 453.00, 1
1.92182, 0.00100, 20813.80, 469.30, 1
1.92282, 0.00050, 21552.50, 427.20, 1
1.92373, 0.00045, 20707.40, 500.00, 1
1.92473, 0.00050, 21697.40, 433.20, 1
1.92573, 0.00050, 21614.50, 538.50, 1
1.92673, 0.00050, 21213.10, 485.10, 1
1.92773, 0.00050, 21652.00, 550.10, 1
1.92873, 0.00050, 21084.00, 382.20, 1
1.92963, 0.00045, 21752.10, 540.10, 1
1.93063, 0.00050, 21331.40, 442.30, 1
1.93163, 0.00050, 21005.50, 382.50, 1
1.93263, 0.00050, 21323.30, 501.50, 1
1.93363, 0.00050, 20912.50, 522.00, 1
1.93463, 0.00050, 20979.50, 352.40, 1
1.93553, 0.00045, 21599.60, 437.10, 1
1.93653, 0.00050, 21370.20, 677.80, 1
1.93753, 0.00050, 21541.60, 410.50, 1
1.93853, 0.00050, 21797.00, 418.70, 1
1.93953, 0.00050, 20975.80, 603.50, 1
1.94053, 0.00050, 21527.80, 443.60, 1
1.94143, 0.00045, 21170.20, 409.00, 1
1.94243, 0.00050, 21861.60, 416.80, 1
1.94343, 0.00050, 21186.70, 528.60, 1
1.94443, 0.00050, 21202.10, 426.10, 1
1.94543, 0.00050, 21128.80, 553.50, 1
1.94643, 0.00050, 20980.70, 533.60, 1
1.94733, 0.00045, 21132.60, 529.80, 1
1.94833, 0.00050, 21555.60, 530.50, 1
1.94933, 0.00050, 21580.50, 389.90, 1
1.95033, 0.00050, 21395.20, 436.80, 1
1.95133, 0.00050, 21680.90, 507.20, 1
1.95233, 0.00050, 22174.40, 483.50, 1
1.95323, 0.00045, 20966.50, 400.20, 1
1.95423, 0.00050, 21538.80, 531.60, 1
1.95523, 0.00050, 21541.60, 566.20, 1
1.95623, 0.00050, 21459.20, 417.40, 1
1.95723, 0.00050, 21299.70, 485.90, 1
1.95823, 0.00050, 21070.00, 469.10, 1
1.95913, 0.00045, 21633.50, 456.50, 1
1.96014, 0.00050, 21427.80, 515.20, 1
1.96114, 0.00050, 21805.00, 477.30, 1
1.96214, 0.00050, 22124.00, 528.80, 1
1.96314, 0.00050, 21831.90, 549.50, 1
1.96414, 0.00050, 21050.30, 510.40, 1
1.96504, 0.00045, 20998.70, 572.10, 1
1.96604, 0.00050, 21663.30, 602.40, 1
1.96704, 0.00050, 21595.70, 516.10, 1
1.96804, 0.00050, 21613.50, 418.00, 1
1.96904, 0.00050, 21630.20, 449.10, 1
1.97004, 0.00050, 21661.30, 556.40, 1
1.97094, 0.00045, 20888.30, 616.60, 1
1.97194, 0.00050, 20633.50, 543.20, 1
1.97294, 0.00050, 20768.80, 627.70, 1
1.97394, 0.00050, 21673.00, 510.30, 1
1.97494, 0.00050, 21948.30, 516.50, 1
1.97594, 0.00050, 21669.20, 568.70, 1
1.97684, 0.00045, 21308.80, 540.20, 1
1.97784, 0.00050, 21725.30, 477.80, 1
1.97884, 0.00050, 21053.50, 461.50, 1
1.97984, 0.00050, 20867.50, 443.10, 1
1.98084, 0.00050, 20938.20, 518.50, 1
1.98184, 0.00050, 20659.80, 596.20, 1
1.98274, 0.00045, 21230.90, 449.60, 1
1.98374, 0.00050, 21321.20, 480.40, 1
1.98474, 0.00050, 21490.60, 526.30, 1
1.98574, 0.00050, 20701.30, 518.80, 1
1.98674, 0.00050, 21985.20, 597.20, 1
1.98774, 0.00050, 21187.80, 534.50, 1
1.98864, 0.00045, 21897.80, 459.70, 1
1.98964, 0.00050, 20954.10, 584.70, 1
1.99064, 0.00050, 21002.60, 552.40, 1
1.99164, 0.00050, 21197.90, 485.20, 1
1.99264, 0.00050, 20894.10, 389.80, 1
1.99364, 0.00050, 21541.00, 562.00, 1
1.99454, 0.00045, 21562.90, 568.90, 1
1.99554, 0.00050, 21179.30, 580.80, 1
1.99654, 0.00050, 20672.60, 497.80, 1
1.99755, 0.00050, 20631.90, 500.00, 1
1.99855, 0.00050, 21087.30, 472.00, 1
1.99955, 0.00050, 21012.90, 460.90, 1
2.00045, 0.00045, 20482.70, 569.50, 1
2.00145, 0.00050, 19997.50, 523.90, 1
2.00245, 0.00050, 20057.70, 435.30, 1
2.00345, 0.00050, 20624.10, 445.60, 1
2.00445, 0.00050, 21407.70, 692.60, 1
2.00545, 0.00050, 21119.70, 463.70, 1
2.00635, 0.00045, 21396.60, 551.10, 1
2.00735, 0.00050, 20959.70, 551.30, 1
2.00835, 0.00050, 21526.80, 396.10, 1
2.00935, 0.00050, 21632.70, 541.50, 1
2.01035, 0.00050, 21669.80, 968.60, 1
2.01135, 0.00050, 21194.30, 515.90, 1
2.01225, 0.00045, 20984.50, 527.00, 1
2.01325, 0.00050, 21883.90, 465.90, 1
2.01425, 0.00050, 21757.90, 541.50, 1
2.01525, 0.00050, 20709.40, 646.20, 1
2.01625, 0.00050, 21536.70, 427.20, 1
2.01725, 0.00050, 22058.40, 560.70, 1
2.01815, 0.00045, 21698.60, 508.90, 1
2.01915, 0.00050, 21706.70, 447.80, 1
2.02015, 0.00050, 21958.40, 517.50, 1
2.02115, 0.00050, 21175.20, 543.20, 1
2.02215, 0.00050, 21351.60, 546.70, 1
2.02315, 0.00050, 21850.40, 521.10, 1
2.02405, 0.00045, 20667.30, 551.80, 1
2.02505, 0.00050, 20990.30, 443.90, 1
2.02605, 0.00050, 21060.20, 667.40, 1
2.02705, 0.00050, 20869.30, 432.10, 1
2.02805, 0.00050, 21580.40, 550.70, 1
2.02905, 0.00050, 20942.40, 501.90, 1
2.02995, 0.00045, 20671.60, 529.10, 1
2.03095, 0.00050, 21518.80, 584.30, 1
2.03195, 0.00050, 20787.40, 555.70, 1
2.03295, 0.00050, 21573.60, 579.20, 1
2.03396, 0.00050, 22061.70, 464.30, 1
2.03496, 0.00050, 21276.20, 447.70, 1
2.03586, 0.00045, 21584.60, 571.80, 1
2.03686, 0.00050, 20674.20, 499.70, 1
2.03786, 0.00050, 21620.40, 391.10, 1
2.03886, 0.00050, 21844.00, 678.40, 1
2.03986, 0.00050, 20860.80, 448.40, 1
2.04086, 0.00050, 21608.00, 572.00, 1
2.04176, 0.00045, 20765.80, 474.90, 1
2.04276, 0.00050, 21546.20, 508.70, 1
2.04376, 0.00050, 21190.20, 553.60, 1
2.04476, 0.00050, 21211.80, 596.10, 1
2.04576, 0.00050, 20509.90, 553.60, 1
2.04676, 0.00050, 21024.90, 468.70, 1
2.04766, 0.00045, 20859.10, 431.70, 1
2.04866, 0.00050, 20430.70, 521.90, 1
2.04966, 0.00050, 20638.10, 588.80, 1
2.05066, 0.00050, 21039.40, 454.20, 1
2.05166, 0.00050, 21441.90, 549.20, 1
2.05266, 0.00050, 20066.40, 557.50, 1
2.05356, 0.00045, 21231.10, 529.20, 1
2.05456, 0.00050, 20656.50, 510.30, 1
2.05556, 0.00050, 21752.90, 441.30, 1
2.05656, 0.00050, 21207.10, 625.90, 1
2.05756, 0.00050, 20731.30, 471.50, 1
2.05856, 0.00050, 21299.90, 470.10, 1
2.05946, 0.00045, 21683.00, 413.70, 1
2.06046, 0.00050, 21401.30, 505.20, 1
2.06146, 0.00050, 20779.90, 591.10, 1
2.06246, 0.00050, 21141.60, 566.60, 1
2.06346, 0.00050, 21576.70, 521.40, 1
2.06446, 0.00050, 20602.10, 573.20, 1
2.06536, 0.00045, 19939.20, 443.20, 1
2.06636, 0.00050, 19224.10, 528.70, 1
2.06736, 0.00050, 20975.20, 550.50, 1
2.06836, 0.00050, 20951.60, 443.30, 1
2.06936, 0.00050, 21835.30, 481.60, 1
2.07037, 0.00050, 21047.80, 505.00, 1
2.07127, 0.00045, 20831.60, 567.60, 1
2.07227, 0.00050, 21310.10, 514.50, 1
2.07327, 0.00050, 21795.10, 569.90, 1
2.07427, 0.00050, 20282.00, 491.50, 1
2.07527, 0.00050, 20888.90, 503.00, 1
2.07627, 0.00050, 21354.70, 484.00, 1
2.07717, 0.00045, 21087.80, 473.20, 1
2.07817, 0.00050, 21552.10, 458.80, 1
2.07917, 0.00050, 20992.40, 608.60, 1
2.08017, 0.00050, 20735.10, 518.30, 1
2.08117, 0.00050, 21385.10, 584.80, 1
2.08217, 0.00050, 20659.30, 625.70, 1
2.08307, 0.00045, 20576.70, 567.50, 1
2.08407, 0.00050, 21268.20, 465.80, 1
2.08507, 0.00050, 20648.60, 673.10, 1
2.08607, 0.00050, 21172.80, 569.00, 1
2.08707, 0.00050, 21217.40, 568.20, 1
2.08807, 0.00050, 21220.40, 551.40, 1
2.08897, 0.00045, 20516.70, 499.70, 1
2.08997, 0.00050, 20663.40, 554.90, 1
2.09097, 0.00050, 21068.70, 593.20, 1
2.09197, 0.00050, 20655.40, 533.40, 1
2.09297, 0.00050, 20371.50, 578.80, 1
2.09397, 0.00050, 21636.10, 555.50, 1
2.09487, 0.00045, 20156.80, 487.60, 1
2.09587, 0.00050, 20361.60, 686.20, 1
2.09687, 0.00050, 21671.40, 646.30, 1
2.09787, 0.00050, 20840.40, 525.80, 1
2.09887, 0.00050, 20780.70, 867.20, 1
2.09987, 0.00050, 21008.70, 564.50, 1
2.10077, 0.00045, 21187.20, 497.40, 1
2.10177, 0.00050, 21239.60, 608.50, 1
2.10277, 0.00050, 21297.70, 621.30, 1
2.10377, 0.00050, 20833.10, 623.30, 1
2.10477, 0.00050, 20416.10, 549.40, 1
2.10577, 0.00050, 21466.50, 463.10, 1
2.10667, 0.00045, 21110.10, 654.80, 1
2.10768, 0.00051, 20759.50, 601.70, 1
2.10868, 0.00050, 20272.60, 615.70, 1
2.10968, 0.00050, 20764.20, 531.00, 1
2.11068, 0.00050, 20180.60, 660.40, 1
2.11168, 0.00050, 20965.80, 640.30, 1
2.11258, 0.00045, 20786.40, 624.70, 1
2.11358, 0.00050, 20959.20, 597.40, 1
2.11458, 0.00050, 20604.60, 518.80, 1
2.11558, 0.00050, 20906.50, 613.80, 1
2.11658, 0.00050, 19882.00, 544.20, 1
2.11758, 0.00050, 20795.90, 662.20, 1
2.11848, 0.00045, 21366.40, 494.00, 1
2.11948, 0.00050, 20316.30, 519.40, 1
2.12048, 0.00050, 20483.40, 495.50, 1
2.12148, 0.00050, 20773.20, 557.40, 1
2.12248, 0.00050, 20977.60, 526.60, 1
2.12348, 0.00050, 19996.10, 568.00, 1
2.12438, 0.00045, 21115.30, 563.50, 1
2.12538, 0.00050, 21580.90, 682.40, 1
2.12638, 0.00050, 20258.20, 581.50, 1
2.12738, 0.00050, 20573.60, 497.90, 1
2.12838, 0.00050, 21380.90, 606.80, 1
2.12938, 0.00050, 22140.80, 605.80, 1
2.13038, 0.00050, 21495.20, 499.00, 1
2.13128, 0.00045, 19835.10, 504.00, 1
2.13228, 0.00050, 20924.20, 554.70, 1
2.13328, 0.00050, 20444.30, 587.40, 1
2.13428, 0.00050, 20778.60, 726.70, 1
2.13528, 0.00050, 20866.50, 570.50, 1
2.13628, 0.00050, 21040.00, 524.20, 1
2.13718, 0.00045, 21391.30, 835.50, 1
2.13818, 0.00050, 19855.80, 3647.30, 1
2.13918, 0.00050, 21101.80, 522.50, 1
2.14018, 0.00050, 20748.10, 561.80, 1
2.14118, 0.00050, 21076.10, 545.40, 1
2.14218, 0.00050, 20228.10, 473.10, 1
2.14308, 0.00045, 21158.30, 596.80, 1
2.14409, 0.00050, 20457.00, 602.60, 1
2.14509, 0.00050, 20847.80, 558.00, 1
2.14609, 0.00050, 20886.90, 559.00, 1
2.14709, 0.00050, 20554.90, 533.60, 1
2.14809, 0.00050, 20325.50, 647.80, 1
2.14899, 0.00045, 20578.00, 518.00, 1
2.14999, 0.00050, 20278.20, 568.10, 1
2.15099, 0.00050, 20209.30, 457.30, 1
2.15199, 0.00050, 20925.70, 571.30, 1
2.15299, 0.00050, 21157.50, 430.10, 1
2.15399, 0.00050, 20379.20, 591.30, 1
2.15489, 0.00045, 20648.10, 572.70, 1
2.15589, 0.00050, 20746.70, 731.80, 1
2.15689, 0.00050, 20310.60, 584.40, 1
2.15789, 0.00050, 20146.70, 549.80, 1
2.15889, 0.00050, 20559.30, 570.40, 1
2.15989, 0.00050, 21842.40, 450.70, 1
2.16079, 0.00045, 21313.60, 576.00, 1
2.16179, 0.00050, 21346.70, 514.70, 1
2.16279, 0.00050, 20900.30, 589.80, 1
2.16379, 0.00050, 21773.20, 634.30, 1
2.16479, 0.00050, 20118.40, 656.00, 1
2.16579, 0.00050, 21243.00, 571.50, 1
2.16669, 0.00045, 20590.40, 610.00, 1
2.16769, 0.00050, 20122.90, 525.80, 1
2.16869, 0.00050, 21638.30, 583.40, 1
2.16969, 0.00050, 20622.60, 580.30, 1
2.17069, 0.00050, 21647.60, 562.80, 1
2.17169, 0.00050, 20580.90, 539.70, 1
2.17259, 0.00045, 20044.20, 569.10, 1
2.17359, 0.00050, 20459.40, 625.80, 1
2.17459, 0.00050, 20805.50, 508.80, 1
2.17559, 0.00050, 20582.60, 617.00, 1
2.17659, 0.00050, 20517.10, 577.50, 1
2.17759, 0.00050, 20406.80, 561.30, 1
2.17849, 0.00045, 19612.40, 668.20, 1
2.17949, 0.00050, 19938.60, 972.10, 1
2.18050, 0.00050, 21090.60, 524.90, 1
2.18150, 0.00050, 20112.50, 618.40, 1
2.18250, 0.00050, 20334.80, 712.30, 1
2.18350, 0.00050, 20315.00, 495.80, 1
2.18440, 0.00045, 20785.20, 570.70, 1
2.18540, 0.00050, 20503.30, 591.30, 1
2.18640, 0.00050, 20317.70, 603.80, 1
2.18740, 0.00050, 21288.10, 623.20, 1
2.18840, 0.00050, 19492.60, 528.10, 1
2.18940, 0.00050, 20421.90, 634.10, 1
2.19030, 0.00045, 20752.30, 567.40, 1
2.19130, 0.00050, 19872.10, 582.00, 1
2.19230, 0.00050, 20669.10, 688.60, 1
2.19330, 0.00050, 21083.80, 739.90, 1
2.19430, 0.00050, 20789.50, 628.60, 1
2.19530, 0.00050, 20243.50, 562.90, 1
2.19630, 0.00050, 20177.40, 535.00, 1
2.19720, 0.00045, 20618.00, 548.00, 1
2.19820, 0.00050, 21088.80, 526.20, 1
2.19920, 0.00050, 20232.70, 614.00, 1
2.20020, 0.00050, 20388.20, 660.70, 1
2.20120, 0.00050, 21263.80, 599.00, 1
2.20220, 0.00050, 20215.30, 590.40, 1
2.20310, 0.00045, 20610.50, 600.00, 1
2.20410, 0.00050, 21239.80, 558.10, 1
2.20510, 0.00050, 20451.70, 705.20, 1
2.20610, 0.00050, 20761.00, 588.40, 1
2.20710, 0.00050, 21326.00, 575.90, 1
2.20810, 0.00050, 21985.80, 568.60, 1
2.20900, 0.00045, 20632.60, 622.80, 1
2.21000, 0.00050, 20275.60, 618.40, 1
2.21100, 0.00050, 20641.30, 615.10, 1
2.21200, 0.00050, 19727.70, 663.60, 1
2.21300, 0.00050, 21029.90, 601.20, 1
2.21400, 0.00050, 20794.50, 545.30, 1
2.21490, 0.00045, 20179.80, 585.90, 1
2.21590, 0.00050, 20613.60, 636.50, 1
2.21690, 0.00050, 21008.00, 579.40, 1
2.21791, 0.00050, 20480.00, 639.30, 1
2.21891, 0.00050, 19752.90, 568.40, 1
2.21991, 0.00050, 20557.00, 609.10, 1
2.22081, 0.00045, 21374.90, 551.20, 1
2.22181, 0.00050, 19791.10, 631.30, 1
2.22281, 0.00050, 20399.20, 617.70, 1
2.22381, 0.00050, 20923.80, 659.10, 1
2.22481, 0.00050, 21484.60, 3700.20, 1
2.22581, 0.00050, 20858.80, 688.50, 1
2.22671, 0.00045, 20795.20, 652.40, 1
2.22771, 0.00050, 19669.20, 694.10, 1
2.22871, 0.00050, 20115.30, 647.80, 1
2.22971, 0.00050, 20490.70, 657.80, 1
2.23071, 0.00050, 20455.40, 633.80, 1
2.23171, 0.00050, 20298.80, 646.70, 1
2.23271, 0.00050, 20171.90, 533.50, 1
2.23361, 0.00045, 20398.00, 608.10, 1
2.23461, 0.00050, 20777.60, 657.10, 1
2.23561, 0.00050, 20022.50, 562.00, 1
2.23661, 0.00050, 21059.50, 574.40, 1
2.23761, 0.00050, 20653.70, 621.90, 1
2.23861, 0.00050, 21065.50, 639.40, 1
2.24051, 0.00095, 21311.90, 632.90, 1
2.24151, 0.00050, 19348.10, 1044.60, 1
2.24251, 0.00050, 20816.20, 556.60, 1
2.24351, 0.00050, 21016.70, 578.00, 1
2.24451, 0.00050, 20493.20, 1137.50, 1
2.24541, 0.00045, 20647.20, 671.40, 1
2.24641, 0.00050, 20948.00, 568.70, 1
2.24741, 0.00050, 20296.80, 575.40, 1
2.24841, 0.00050, 20746.30, 444.10, 1
2.24941, 0.00050, 20856.30, 673.80, 1
2.25041, 0.00050, 20633.20, 824.20, 1
2.25131, 0.00045, 20891.70, 744.90, 1
2.25231, 0.00050, 19805.40, 629.80, 1
2.25331, 0.00050, 20540.40, 599.70, 1
2.25432, 0.00050, 21312.80, 672.50, 1
2.25532, 0.00050, 20844.70, 921.20, 1
2.25632, 0.00050, 20365.60, 701.40, 1
2.25732, 0.00050, 21165.50, 638.80, 1
2.25822, 0.00045, 20280.30, 728.80, 1
2.25922, 0.00050, 19699.00, 4983.30, 1
2.26022, 0.00050, 21560.00, 708.40, 1
2.26122, 0.00050, 21125.80, 643.90, 1
2.26222, 0.00050, 20654.20, 619.00, 1
2.26322, 0.00050, 20540.70, 642.30, 1
2.26412, 0.00045, 20929.00, 585.90, 1
2.26512, 0.00050, 21590.20, 608.10, 1
2.26612, 0.00050, 20867.50, 569.70, 1
2.26712, 0.00050, 21658.30, 638.80, 1
2.26812, 0.00050, 20192.80, 641.00, 1
2.26912, 0.00050, 20615.40, 595.60, 1
2.27002, 0.00045, 20113.50, 604.20, 1
2.27102, 0.00050, 22112.90, 717.20, 1
2.27202, 0.00050, 21083.60, 673.60, 1
2.27302, 0.00050, 21572.10, 663.20, 1
2.27402, 0.00050, 21376.50, 674.90, 1
2.27502, 0.00050, 21201.80, 696.30, 1
2.27602, 0.00050, 21047.80, 614.70, 1
2.27692, 0.00045, 20288.50, 610.50, 1
2.27792, 0.00050, 21059.40, 619.10, 1
2.27892, 0.00050, 21410.10, 711.20, 1
2.27992, 0.00050, 20530.50, 611.60, 1
2.28092, 0.00050, 20122.30, 606.70, 1
2.28192, 0.00050, 20560.70, 579.40, 1
2.28282, 0.00045, 21425.30, 746.30, 1
2.28382, 0.00050, 20148.70, 603.30, 1
2.28482, 0.00050, 21490.70, 703.90, 1
2.28582, 0.00050, 20537.40, 521.50, 1
2.28682, 0.00050, 21243.50, 598.20, 1
2.28782, 0.00050, 20660.00, 608.70, 1
2.28872, 0.00045, 19928.40, 661.20, 1
2.28972, 0.00050, 20438.10, 641.30, 1
2.29073, 0.00050, 21082.30, 645.60, 1
2.29173, 0.00050, 20810.40, 697.70, 1
2.29273, 0.00050, 20457.90, 639.90, 1
2.29373, 0.00050, 20107.60, 620.50, 1
2.29473, 0.00050, 20843.50, 721.10, 1
2.29563, 0.00045, 21032.80, 651.60, 1
2.29663, 0.00050, 21117.30, 723.90, 1
2.29763, 0.00050, 21705.30, 722.80, 1
2.29863, 0.00050, 20763.30, 806.50, 1
2.29963, 0.00050, 20513.20, 656.60, 1
2.30063, 0.00050, 20593.30, 634.50, 1
2.30153, 0.00045, 19471.80, 707.70, 1
2.30253, 0.00050, 20184.30, 654.40, 1
2.30353, 0.00050, 20697.20, 774.40, 1
2.30453, 0.00050, 20392.20, 590.10, 1
2.30553, 0.00050, 21572.50, 698.10, 1
2.30653, 0.00050, 20366.20, 601.50, 1
2.30753, 0.00050, 21727.80, 640.70, 1
2.30843, 0.00045, 20174.30, 851.80, 1
2.30943, 0.00050, 21690.50, 723.00, 1
2.31043, 0.00050, 20845.60, 615.10, 1
2.31143, 0.00050, 21122.10, 743.60, 1
2.31243, 0.00050, 21036.10, 643.10, 1
2.31343, 0.00050, 20923.60, 666.00, 1
2.31433, 0.00045, 21111.00, 988.70, 1
2.31533, 0.00050, 19963.60, 642.20, 1
2.31633, 0.00050, 20800.60, 760.20, 1
2.31733, 0.00050, 20732.70, 699.70, 1
2.31833, 0.00050, 20986.40, 656.30, 1
2.31933, 0.00050, 20971.80, 593.40, 1
2.32033, 0.00050, 21025.80, 646.90, 1
2.32123, 0.00045, 21530.20, 647.80, 1
2.32223, 0.00050, 20666.60, 644.00, 1
2.32323, 0.00050, 21213.70, 733.70, 1
2.32423, 0.00050, 20535.40, 615.80, 1
2.32523, 0.00050, 21430.50, 689.00, 1
2.32623, 0.00050, 21095.80, 685.20, 1
2.32713, 0.00045, 20018.40, 861.60, 1
2.32814, 0.00050, 21342.00, 690.20, 1
2.32914, 0.00050, 20216.80, 668.70, 1
2.33014, 0.00050, 21689.40, 648.00, 1
2.33114, 0.00050, 21413.10, 626.10, 1
2.33214, 0.00050, 20323.50, 733.10, 1
2.33314, 0.00050, 20206.30, 659.30, 1
2.33404, 0.00045, 21492.20, 663.60, 1
2.33504, 0.00050, 21439.20, 681.90, 1
2.33604, 0.00050, 19965.90, 618.20, 1
2.33704, 0.00050, 20901.40, 711.70, 1
2.33804, 0.00050, 22062.50, 660.10, 1
2.33904, 0.00050, 21561.70, 607.40, 1
2.34004, 0.00050, 20709.50, 664.50, 1
2.34094, 0.00045, 22309.60, 676.60, 1
2.34194, 0.00050, 20893.50, 658.20, 1
2.34294, 0.00050, 20757.60, 676.90, 1
2.34394, 0.00050, 20786.30, 646.10, 1
2.34494, 0.00050, 22096.00, 730.50, 1
2.34594, 0.00050, 20372.90, 750.90, 1
2.34684, 0.00045, 20683.30, 823.10, 1
2.34784, 0.00050, 21627.90, 676.90, 1
2.34884, 0.00050, 20887.20, 671.10, 1
2.34984, 0.00050, 19589.10, 706.90, 1
2.35084, 0.00050, 20868.80, 664.10, 1
2.35184, 0.00050, 21178.50, 696.90, 1
2.35284, 0.00050, 20965.20, 864.00, 1
2.35374, 0.00045, 20198.80, 761.10, 1
2.35474, 0.00050, 21319.20, 811.30, 1
2.35574, 0.00050, 20820.60, 697.20, 1
2.35674, 0.00050, 21871.40, 731.40, 1
2.35874, 0.00100, 22223.00, 756.40, 1
2.35974, 0.00050, 21900.80, 758.60, 1
2.36064, 0.00045, 20846.20, 708.70, 1
2.36164, 0.00050, 21342.40, 693.40, 1
2.36264, 0.00050, 21293.90, 619.00, 1
2.36364, 0.00050, 20696.40, 708.00, 1
2.36465, 0.00050, 20982.20, 729.30, 1
2.36565, 0.00050, 21089.00, 741.90, 1
2.36665, 0.00050, 20843.40, 617.20, 1
2.36755, 0.00045, 21766.00, 716.40, 1
2.36855, 0.00050, 21703.00, 682.40, 1
2.36955, 0.00050, 21906.70, 779.80, 1
2.37055, 0.00050, 21008.90, 636.60, 1
2.37155, 0.00050, 21430.90, 640.80, 1
2.37255, 0.00050, 20901.70, 710.40, 1
2.37355, 0.00050, 20558.60, 692.60, 1
2.37445, 0.00045, 21201.90, 742.30, 1
2.37545, 0.00050, 21224.80, 851.40, 1
2.37645, 0.00050, 21485.60, 660.60, 1
2.37745, 0.00050, 21098.50, 688.70, 1
2.37845, 0.00050, 22242.10, 761.60, 1
2.37945, 0.00050, 21399.70, 733.10, 1
2.38045, 0.00050, 21642.00, 761.60, 1
2.38135, 0.00045, 21846.60, 724.20, 1
2.38235, 0.00050, 21190.30, 724.80, 1
2.38335, 0.00050, 21628.90, 756.30, 1
2.38435, 0.00050, 21126.70, 707.70, 1
2.38535, 0.00050, 21659.40, 762.80, 1
2.38635, 0.00050, 21428.30, 756.90, 1
2.38735, 0.00050, 21137.80, 741.40, 1
2.38825, 0.00045, 22038.20, 779.50, 1
2.38925, 0.00050, 20890.40, 665.10, 1
2.39025, 0.00050, 20814.00, 779.40, 1
2.39125, 0.00050, 20027.70, 788.40, 1
2.39225, 0.00050, 22040.80, 632.70, 1
2.39325, 0.00050, 19684.00, 1215.30, 1
2.39425, 0.00050, 20647.70, 752.10, 1
2.39515, 0.00045, 21699.60, 745.90, 1
2.39615, 0.00050, 20908.60, 689.40, 1
2.39715, 0.00050, 21007.60, 828.10, 1
2.39815, 0.00050, 21061.50, 1020.70, 1
2.39915, 0.00050, 19802.50, 640.10, 1
2.40015, 0.00050, 20963.70, 705.10, 1
2.40116, 0.00050, 21767.30, 821.40, 1
2.40206, 0.00045, 21917.70, 789.30, 1
2.40306, 0.00050, 20845.00, 875.20, 1
2.40406, 0.00050, 21182.20, 838.50, 1
2.40506, 0.00050, 21519.20, 688.00, 1
2.40606, 0.00050, 20871.20, 710.20, 1
2.40706, 0.00050, 21523.50, 711.00, 1
2.40806, 0.00050, 21870.00, 717.80, 1
2.40906, 0.00050, 20934.40, 673.10, 1
2.40996, 0.00045, 21821.00, 771.70, 1
2.41096, 0.00050, 21341.00, 836.90, 1
2.41296, 0.00100, 22152.70, 756.30, 1
2.41396, 0.00050, 20656.40, 786.80, 1
2.41496, 0.00050, 20764.70, 774.70, 1
2.41596, 0.00050, 21394.20, 1074.40, 1
2.41686, 0.00045, 20899.70, 957.70, 1
2.41786, 0.00050, 20345.30, 843.00, 1
2.41886, 0.00050, 21094.70, 737.30, 1
2.41986, 0.00050, 21165.40, 811.60, 1
2.42086, 0.00050, 20358.60, 818.90, 1
2.42186, 0.00050, 20556.50, 650.50, 1
2.42286, 0.00050, 21092.70, 725.40, 1
2.42386, 0.00050, 21861.90, 745.60, 1
2.42476, 0.00045, 22165.50, 754.30, 1
2.42576, 0.00050, 21479.90, 756.50, 1
2.42676, 0.00050, 21057.00, 713.70, 1
2.42776, 0.00050, 21399.60, 849.40, 1
2.42876, 0.00050, 19761.80, 735.50, 1
2.42976, 0.00050, 20223.50, 732.10, 1
2.43076, 0.00050, 22136.00, 755.70, 1
2.43166, 0.00045, 21045.40, 739.30, 1
2.43366, 0.00100, 20940.60, 748.70, 1
2.43466, 0.00050, 20547.10, 703.60, 1
2.43566, 0.00050, 21070.80, 734.50, 1
2.43666, 0.00050, 21133.00, 674.60, 1
2.43767, 0.00050, 20668.90, 774.40, 1
2.43867, 0.00050, 20821.30, 704.50, 1
2.43957, 0.00045, 21302.90, 701.30, 1
2.44057, 0.00050, 21199.70, 1097.60, 1
2.44157, 0.00050, 21472.40, 730.70, 1
2.44257, 0.00050, 20957.20, 795.30, 1
2.44357, 0.00050, 21002.60, 808.20, 1
2.44457, 0.00050, 20020.50, 719.50, 1
2.44557, 0.00050, 22267.70, 846.10, 1
2.44657, 0.00050, 21706.00, 752.70, 1
2.44747, 0.00045, 20376.10, 738.20, 1
2.44847, 0.00050, 20281.40, 761.60, 1
2.44947, 0.00050, 20635.90, 722.40, 1
2.45047, 0.00050, 22925.30, 797.90, 1
2.45147, 0.00050, 20866.60, 733.90, 1
2.45247, 0.00050, 21011.00, 786.00, 1
2.45347, 0.00050, 21259.60, 856.00, 1
2.45447, 0.00050, 21069.20, 771.20, 1
2.45537, 0.00045, 21623.90, 783.00, 1
2.45637, 0.00050, 21322.50, 838.60, 1
2.45737, 0.00050, 20998.70, 798.50, 1
2.45837, 0.00050, 22260.30, 785.50, 1
2.45937, 0.00050, 21949.50, 844.00, 1
2.46037, 0.00050, 21957.90, 668.60, 1
2.46137, 0.00050, 21744.30, 839.50, 1
2.46237, 0.00050, 20010.20, 744.20, 1
2.46327, 0.00045, 21022.50, 677.50, 1
2.46427, 0.00050, 21733.20, 764.50, 1
2.46527, 0.00050, 21226.50, 780.50, 1
2.46627, 0.00050, 21658.80, 753.70, 1
2.46727, 0.00050, 21070.60, 747.90, 1
2.46827, 0.00050, 21864.60, 744.10, 1
2.46927, 0.00050, 21778.00, 943.40, 1
2.47027, 0.00050, 21401.70, 755.80, 1
2.47117, 0.00045, 22396.80, 863.90, 1
2.47217, 0.00050, 22247.10, 806.40, 1
2.47317, 0.00050, 21079.80, 833.80, 1
2.47417, 0.00050, 20440.30, 816.10, 1
2.47518, 0.00050, 21776.50, 789.20, 1
2.47618, 0.00050, 20628.20, 756.70, 1
2.47718, 0.00050, 20836.40, 789.80, 1
2.47818, 0.00050, 22344.20, 728.00, 1
2.47918, 0.00050, 21520.30, 689.30, 1
2.48008, 0.00045, 22568.10, 826.70, 1
2.48108, 0.00050, 21069.30, 767.50, 1
2.48208, 0.00050, 20787.80, 772.80, 1
2.48408, 0.00100, 21073.10, 822.50, 1
2.48508, 0.00050, 21114.00, 837.60, 1
2.48608, 0.00050, 21941.90, 777.30, 1
2.48798, 0.00095, 20289.60, 843.10, 1
2.48898, 0.00050, 21428.40, 848.80, 1
2.48998, 0.00050, 19908.00, 767.00, 1
2.49098, 0.00050, 20679.50, 733.30, 1
2.49198, 0.00050, 22470.20, 1043.00, 1
2.49298, 0.00050, 21058.40, 756.60, 1
2.49398, 0.00050, 21063.30, 781.10, 1
2.49498, 0.00050, 20892.50, 807.30, 1
2.49598, 0.00050, 21037.60, 803.60, 1
2.49688, 0.00045, 20290.00, 933.20, 1
2.49788, 0.00050, 21118.30, 766.30, 1
2.49888, 0.00050, 21504.60, 828.60, 1
2.49988, 0.00050, 20337.30, 791.60, 1
2.50088, 0.00050, 19879.90, 1237.20, 1
2.50188, 0.00050, 21404.30, 906.90, 1
2.50288, 0.00050, 22159.90, 825.70, 1
2.50388, 0.00050, 20358.00, 814.10, 1
2.50488, 0.00050, 21807.30, 835.90, 1
2.50588, 0.00050, 20977.80, 768.90, 1
2.50678, 0.00045, 19653.50, 795.10, 1
2.50778, 0.00050, 21809.70, 677.30, 1
2.50878, 0.00050, 20826.70, 741.00, 1
2.50978, 0.00050, 21134.00, 753.20, 1
2.51078, 0.00050, 21866.40, 829.90, 1
2.51179, 0.00050, 20567.30, 768.00, 1
2.51279, 0.00050, 20439.20, 850.30, 1
2.51379, 0.00050, 20854.80, 792.80, 1
2.51479, 0.00050, 22202.40, 1102.10, 1
2.51569, 0.00045, 22163.60, 813.60, 1
2.51669, 0.00050, 21636.60, 781.40, 1
2.51769, 0.00050, 21061.40, 902.20, 1
2.51869, 0.00050, 21661.20, 748.20, 1
2.51969, 0.00050, 21939.80, 853.60, 1
2.52069, 0.00050, 21435.10, 830.30, 1
2.52169, 0.00050, 20164.70, 814.80, 1
2.52269, 0.00050, 20964.10, 776.30, 1
2.52369, 0.00050, 21043.70, 801.70, 1
2.52469, 0.00050, 21442.70, 924.50, 1
2.52559, 0.00045, 20250.30, 862.70, 1
2.52659, 0.00050, 21468.80, 789.40, 1
2.52759, 0.00050, 20465.50, 1175.70, 1
2.52859, 0.00050, 22248.50, 817.30, 1
2.52959, 0.00050, 20834.50, 898.10, 1
2.53059, 0.00050, 22050.00, 859.10, 1
2.53159, 0.00050, 21428.70, 846.00, 1
2.53259, 0.00050, 21555.50, 849.70, 1
2.53359, 0.00050, 22451.70, 856.40, 1
2.53459, 0.00050, 21996.40, 764.10, 1
2.53549, 0.00045, 20429.10, 774.50, 1
2.53649, 0.00050, 21946.90, 850.30, 1
2.53749, 0.00050, 21174.20, 940.20, 1
2.53849, 0.00050, 21200.70, 808.80, 1
2.53949, 0.00050, 19418.30, 964.00, 1
2.54049, 0.00050, 20514.30, 845.40, 1
2.54149, 0.00050, 21668.90, 1325.70, 1
2.54249, 0.00050, 21932.10, 812.70, 1
2.54349, 0.00050, 21543.70, 823.90, 1
2.54449, 0.00050, 19983.60, 754.60, 1
2.54549, 0.00050, 22011.40, 854.70, 1
2.54639, 0.00045, 21866.70, 898.30, 1
2.54739, 0.00050, 20735.30, 880.10, 1
2.54840, 0.00050, 21239.40, 878.40, 1
2.54940, 0.00050, 21469.70, 922.40, 1
2.55040, 0.00050, 22324.50, 894.60, 1
2.55140, 0.00050, 20556.30, 940.20, 1
2.55240, 0.00050, 21275.70, 863.90, 1
2.55340, 0.00050, 21439.10, 867.70, 1
2.55440, 0.00050, 21747.60, 942.90, 1
2.55540, 0.00050, 22716.50, 1021.00, 1
2.55640, 0.00050, 20591.50, 924.70, 1
2.55730, 0.00045, 21776.00, 851.20, 1
2.55830, 0.00050, 23131.50, 942.80, 1
2.55930, 0.00050, 21120.10, 916.70, 1
2.56030, 0.00050, 21528.00, 837.40, 1
2.56130, 0.00050, 22177.20, 943.40, 1
2.56230, 0.00050, 20602.60, 860.50, 1
2.56330, 0.00050, 21154.10, 870.70, 1
2.56430, 0.00050, 20858.10, 950.40, 1
2.56530, 0.00050, 22104.70, 870.70, 1
2.56630, 0.00050, 21354.50, 1052.90, 1
2.56730, 0.00050, 21637.20, 856.10, 1
2.56830, 0.00050, 22722.70, 851.10, 1
2.56920, 0.00045, 19569.60, 894.00, 1
2.57020, 0.00050, 20940.10, 827.00, 1
2.57120, 0.00050, 21950.50, 870.80, 1
2.57220, 0.00050, 21993.90, 875.20, 1
2.57320, 0.00050, 21902.40, 899.20, 1
2.57420, 0.00050, 21149.70, 810.50, 1
2.57520, 0.00050, 22768.30, 867.00, 1
2.57620, 0.00050, 21173.90, 958.60, 1
2.57720, 0.00050, 20115.60, 762.50, 1
2.57820, 0.00050, 21676.30, 880.70, 1
2.57920, 0.00050, 20560.40, 852.70, 1
2.58020, 0.00050, 20552.00, 884.10, 1
2.58120, 0.00050, 20714.20, 961.40, 1
2.58210, 0.00045, 21515.00, 945.30, 1
2.58310, 0.00050, 22849.80, 918.30, 1
2.58410, 0.00050, 22005.10, 984.10, 1
2.58511, 0.00050, 19830.70, 948.40, 1
2.58611, 0.00050, 21190.40, 894.10, 1
2.58711, 0.00050, 19991.20, 886.50, 1
2.58811, 0.00050, 21609.00, 935.50, 1
2.58911, 0.00050, 22144.30, 903.40, 1
2.59011, 0.00050, 20522.80, 942.10, 1
2.59111, 0.00050, 19372.90, 910.40, 1
2.59211, 0.00050, 20404.30, 962.20, 1
2.59311, 0.00050, 21327.70, 842.20, 1
2.59411, 0.00050, 20573.00, 820.30, 1
2.59501, 0.00045, 20514.00, 893.60, 1
2.59601, 0.00050, 20759.00, 881.40, 1
2.59701, 0.00050, 20486.40, 975.10, 1
2.59801, 0.00050, 20110.90, 938.30, 1
2.59901, 0.00050, 21158.00, 868.50, 1
2.60001, 0.00050, 20295.30, 976.70, 1
2.60101, 0.00050, 21072.40, 845.70, 1
2.60201, 0.00050, 21043.10, 823.00, 1
2.60301, 0.00050, 20484.70, 912.60, 1
2.60401, 0.00050, 20489.20, 953.90, 1
2.60501, 0.00050, 20736.70, 863.70, 1
2.60601, 0.00050, 21531.80, 886.10, 1
2.60701, 0.00050, 21355.90, 949.50, 1
2.60801, 0.00050, 21368.10, 919.90, 1
2.60901, 0.00050, 21377.60, 1275.60, 1
2.61001, 0.00050, 21301.60, 982.20, 1
2.61091, 0.00045, 20213.60, 849.80, 1
2.61191, 0.00050, 22556.40, 982.30, 1
2.61291, 0.00050, 20182.00, 914.20, 1
2.61391, 0.00050, 21749.90, 901.10, 1
2.61491, 0.00050, 21125.00, 904.50, 1
2.61591, 0.00050, 19102.50, 909.50, 1
2.61691, 0.00050, 21449.60, 890.80, 1
2.61791, 0.00050, 22004.30, 996.40, 1
2.61891, 0.00050, 22426.40, 1069.20, 1
2.61991, 0.00050, 22789.10, 941.20, 1
2.62091, 0.00050, 19869.40, 907.00, 1
2.62192, 0.00050, 22443.90, 1077.30, 1
2.62292, 0.00050, 22173.40, 940.00, 1
2.62392, 0.00050, 19985.30, 1452.10, 1
2.62492, 0.00050, 20080.00, 975.50, 1
2.62592, 0.00050, 23132.10, 942.10, 1
2.62692, 0.00050, 20360.50, 946.90, 1
2.62792, 0.00050, 19482.90, 944.60, 1
2.62882, 0.00045, 20838.20, 941.90, 1
2.62982, 0.00050, 22087.20, 909.90, 1
2.63082, 0.00050, 22136.90, 920.80, 1
2.63182, 0.00050, 22285.30, 800.50, 1
2.63282, 0.00050, 21486.70, 878.00, 1
2.63382, 0.00050, 20468.90, 916.80, 1
2.63482, 0.00050, 22178.70, 934.90, 1
2.63582, 0.00050, 21079.40, 955.30, 1
2.63682, 0.00050, 22182.00, 890.30, 1
2.63782, 0.00050, 22791.50, 1148.10, 1
2.63882, 0.00050, 20318.10, 942.00, 1
2.63982, 0.00050, 20340.40, 951.30, 1
2.64082, 0.00050, 21533.40, 948.80, 1
2.64182, 0.00050, 20814.20, 945.70, 1
2.64282, 0.00050, 20279.70, 950.30, 1
2.64382, 0.00050, 20714.30, 1038.80, 1
2.64482, 0.00050, 22174.90, 976.70, 1
2.64582, 0.00050, 21917.50, 888.00, 1
2.64682, 0.00050, 21904.50, 874.00, 1
2.64782, 0.00050, 21833.40, 1161.20, 1
2.64882, 0.00050, 21669.10, 1076.90, 1
2.64982, 0.00050, 21907.30, 1443.40, 1
2.65082, 0.00050, 20163.80, 890.80, 1
2.65172, 0.00045, 22913.50, 963.40, 1
2.65272, 0.00050, 21973.30, 1020.40, 1
2.65372, 0.00050, 23071.60, 953.00, 1
2.65472, 0.00050, 20619.30, 926.30, 1
2.65672, 0.00100, 19945.90, 904.00, 1
2.65772, 0.00050, 21847.70, 911.90, 1
2.65873, 0.00050, 22018.10, 1009.80, 1
2.65973, 0.00050, 20717.60, 977.60, 1
2.66073, 0.00050, 22115.70, 963.30, 1
2.66173, 0.00050, 22689.20, 1080.10, 1
2.66273, 0.00050, 22410.90, 928.60, 1
2.66373, 0.00050, 21178.80, 957.90, 1
2.66473, 0.00050, 22693.90, 999.90, 1
2.66573, 0.00050, 22094.80, 974.20, 1
2.66673, 0.00050, 22473.90, 954.10, 1
2.66773, 0.00050, 22340.50, 1119.20, 1
2.66873, 0.00050, 22934.70, 980.20, 1
2.66973, 0.00050, 21698.60, 970.20, 1
2.67073, 0.00050, 20859.80, 959.90, 1
2.67173, 0.00050, 22274.30, 1039.80, 1
2.67273, 0.00050, 21579.70, 1083.90, 1
2.67373, 0.00050, 21658.60, 1050.60, 1
2.67473, 0.00050, 22008.80, 999.80, 1
2.67573, 0.00050, 22174.10, 1030.60, 1
2.67673, 0.00050, 22179.10, 953.50, 1
2.67773, 0.00050, 22094.40, 954.00, 1
2.67873, 0.00050, 22082.10, 1028.70, 1
2.67973, 0.00050, 22003.10, 1019.90, 1
2.68073, 0.00050, 21940.10, 1034.90, 1
2.68173, 0.00050, 21995.70, 1040.30, 1
2.68273, 0.00050, 22385.80, 1031.00, 1
2.68373, 0.00050, 21764.50, 1053.00, 1
2.68473, 0.00050, 19424.30, 1057.00, 1
2.68573, 0.00050, 23152.20, 889.50, 1
2.68673, 0.00050, 23004.10, 1039.70, 1
2.68773, 0.00050, 22198.00, 1068.60, 1
2.68873, 0.00050, 22260.70, 963.60, 1
2.68973, 0.00050, 22963.90, 1068.60, 1
2.69073, 0.00050, 21586.40, 1009.90, 1
2.69173, 0.00050, 21320.90, 875.50, 1
2.69273, 0.00050, 20953.20, 974.70, 1
2.69373, 0.00050, 20719.10, 1032.90, 1
2.69474, 0.00050, 22199.80, 987.60, 1
2.69564, 0.00045, 22680.40, 1040.90, 1
2.69664, 0.00050, 22116.20, 1025.80, 1
2.69764, 0.00050, 20033.30, 1018.10, 1
2.69864, 0.00050, 21266.80, 1084.60, 1
2.69964, 0.00050, 22105.80, 1040.80, 1
2.70064, 0.00050, 22763.90, 1043.10, 1
2.70164, 0.00050, 21179.40, 1043.30, 1
2.70264, 0.00050, 22770.20, 1113.40, 1
2.70364, 0.00050, 22724.40, 1024.10, 1
2.70464, 0.00050, 23334.30, 993.00, 1
2.70564, 0.00050, 20176.10, 930.10, 1
2.70664, 0.00050, 20650.70, 1372.70, 1
2.70764, 0.00050, 23646.20, 1049.90, 1
2.70864, 0.00050, 22864.20, 1065.70, 1
2.70964, 0.00050, 21659.00, 1101.40, 1
2.71064, 0.00050, 23271.50, 1059.10, 1
2.71164, 0.00050, 22682.00, 882.90, 1
2.71264, 0.00050, 19687.80, 1026.70, 1
2.71364, 0.00050, 20917.80, 1010.00, 1
2.71464, 0.00050, 21703.10, 1236.80, 1
2.71564, 0.00050, 20627.50, 1085.90, 1
2.71664, 0.00050, 21057.20, 1129.70, 1
2.71774, 0.00055, 20134.90, 1142.80, 1
2.71874, 0.00050, 24153.40, 987.10, 1
2.71974, 0.00050, 20841.00, 1217.40, 1
2.72074, 0.00050, 21133.00, 1012.00, 1
2.72174, 0.00050, 19423.10, 1072.80, 1
2.72274, 0.00050, 22274.70, 1080.70, 1
2.72374, 0.00050, 22573.80, 1002.50, 1
2.72474, 0.00050, 21116.80, 1030.00, 1
2.72574, 0.00050, 20289.60, 1084.80, 1
2.72674, 0.00050, 21087.00, 1210.20, 1
2.72774, 0.00050, 21708.20, 1245.10, 1
2.72874, 0.00050, 21112.80, 1005.90, 1
2.72974, 0.00050, 20612.70, 1231.50, 1
2.73074, 0.00050, 21748.40, 1071.10, 1
2.73175, 0.00050, 21574.10, 1072.50, 1
2.73275, 0.00050, 21769.50, 1042.00, 1
2.73375, 0.00050, 21168.40, 1064.80, 1
2.73475, 0.00050, 20102.60, 1074.10, 1
2.73575, 0.00050, 21616.10, 1231.90, 1
2.73675, 0.00050, 22688.10, 1046.20, 1
2.73775, 0.00050, 21391.60, 1019.80, 1
2.73875, 0.00050, 22850.20, 1087.40, 1
2.73975, 0.00050, 20358.50, 1085.00, 1
2.74075, 0.00050, 21522.20, 1066.00, 1
2.74175, 0.00050, 22853.60, 1117.10, 1
2.74275, 0.00050, 22508.20, 1055.10, 1
2.74375, 0.00050, 21688.20, 1196.40, 1
2.74475, 0.00050, 22831.10, 1264.90, 1
2.74575, 0.00050, 20339.30, 1150.30, 1
2.74675, 0.00050, 22289.70, 1199.20, 1
2.74775, 0.00050, 20202.90, 1029.90, 1
2.74875, 0.00050, 21224.80, 1182.20, 1
2.74975, 0.00050, 20886.10, 1191.80, 1
2.75075, 0.00050, 21180.30, 1138.40, 1
2.75175, 0.00050, 20375.70, 1109.00, 1
2.75275, 0.00050, 21816.50, 1137.80, 1
2.75375, 0.00050, 23614.20, 1122.20, 1
2.75475, 0.00050, 23239.10, 1187.40, 1
2.75575, 0.00050, 21269.50, 1071.90, 1
2.75675, 0.00050, 21199.50, 1204.30, 1
2.75775, 0.00050, 20283.80, 1055.70, 1
2.75885, 0.00055, 21789.20, 1095.20, 1
2.75985, 0.00050, 22521.00, 1191.30, 1
2.76085, 0.00050, 20719.70, 1145.30, 1
2.76185, 0.00050, 21511.00, 1176.10, 1
2.76285, 0.00050, 21111.10, 1100.10, 1
2.76385, 0.00050, 20432.40, 1189.70, 1
2.76485, 0.00050, 20450.20, 1132.70, 1
2.76585, 0.00050, 20634.90, 1259.70, 1
2.76685, 0.00050, 22281.40, 1021.90, 1
2.76886, 0.00101, 20885.90, 1126.60, 1
2.76986, 0.00050, 21739.40, 1131.50, 1
2.77086, 0.00050, 22261.30, 1223.20, 1
2.77186, 0.00050, 21351.10, 1342.60, 1
2.77286, 0.00050, 21836.50, 1079.60, 1
2.77386, 0.00050, 22352.90, 1128.00, 1
2.77486, 0.00050, 22043.80, 1199.20, 1
2.77586, 0.00050, 20849.20, 1181.90, 1
2.77686, 0.00050, 22938.30, 1161.30, 1
2.77786, 0.00050, 21955.70, 1037.00, 1
2.77886, 0.00050, 20901.30, 1313.20, 1
2.77996, 0.00055, 22035.50, 1135.00, 1
2.78096, 0.00050, 23172.70, 1067.80, 1
2.78196, 0.00050, 21597.80, 1208.20, 1
2.78296, 0.00050, 20977.20, 1164.20, 1
2.78396, 0.00050, 20254.40, 1148.20, 1
2.78496, 0.00050, 21365.60, 1189.40, 1
2.78596, 0.00050, 19835.40, 1102.90, 1
2.78696, 0.00050, 21443.30, 1083.70, 1
2.78796, 0.00050, 20429.30, 1052.80, 1
2.78896, 0.00050, 21050.60, 1138.40, 1
2.78996, 0.00050, 22381.30, 1230.10, 1
2.79096, 0.00050, 20147.70, 1158.80, 1
2.79196, 0.00050, 21592.40, 992.20, 1
2.79296, 0.00050, 21291.60, 1218.10, 1
2.79396, 0.00050, 22250.30, 1171.00, 1
2.79506, 0.00055, 20799.50, 1193.80, 1
2.79606, 0.00050, 20985.10, 1157.60, 1
2.79706, 0.00050, 21963.00, 1204.00, 1
2.79806, 0.00050, 21463.40, 1150.60, 1
2.79906, 0.00050, 19498.10, 1194.10, 1
2.80006, 0.00050, 22156.10, 1104.00, 1
2.80106, 0.00050, 23274.50, 1361.80, 1
2.80306, 0.00100, 20457.80, 1176.00, 1
2.80406, 0.00050, 23116.70, 1477.00, 1
2.80507, 0.00050, 22471.10, 1186.80, 1
2.80607, 0.00050, 21732.20, 1156.00, 1
2.80707, 0.00050, 23489.50, 957.70, 1
2.80817, 0.00055, 20488.00, 1382.40, 1
2.80917, 0.00050, 20176.30, 1147.50, 1
2.81117, 0.00100, 21074.60, 1393.00, 1
2.81217, 0.00050, 19367.60, 1321.00, 1
2.81317, 0.00050, 22406.40, 1587.00, 1
2.81417, 0.00050, 21438.40, 1214.90, 1
2.81517, 0.00050, 23300.80, 1244.40, 1
2.81617, 0.00050, 22312.20, 1253.00, 1
2.81717, 0.00050, 21650.10, 1290.70, 1
2.81817, 0.00050, 19818.20, 1129.30, 1
2.81927, 0.00055, 19182.90, 1237.10, 1
2.82027, 0.00050, 22721.80, 1298.50, 1
2.82127, 0.00050, 23134.60, 1195.30, 1
2.82227, 0.00050, 22458.00, 1241.10, 1
2.82327, 0.00050, 23451.40, 1179.70, 1
2.82427, 0.00050, 20850.80, 1564.30, 1
2.82527, 0.00050, 23001.90, 999.00, 1
2.82627, 0.00050, 22362.90, 1180.70, 1
2.82727, 0.00050, 21092.80, 1306.00, 1
2.82827, 0.00050, 19823.70, 1281.40, 1
2.82937, 0.00055, 21538.60, 1150.60, 1
2.83037, 0.00050, 21635.80, 1059.60, 1
